time,eeg-ch1,eeg-ch2,eeg-ch3,eeg-ch4,eeg-ch5,eeg-ch6,gyro-gyro1,gyro-gyro2,gyro-gyro3,acc-acc1,acc-acc2,acc-acc3,ppg-ambient,ppg-ir,ppg-red
0.0,1339.3362325474936,1411.8471046005952,370.7118333714809,367.89196612497136,0.0,0.0,15259.021896667933,-1632715.3429465482,15259.02189666789,88441.29091325258,65735.86633096825,973830.7774471671,33997292668.03998,24002907835.50778,81921187.15192193
0.0038910505836575876,138.2238498512245,135.0011444266422,1610.0938429846647,1497.6768139162282,0.0,0.0,19404.957439258695,-1801241.2865864986,21622.435600217414,98563.15807328516,72973.94594321752,1084193.0362465703,37899963841.88146,26748770793.898556,104277462.08349188
0.007782101167315175,1248.6724650949875,1255.9235523002976,414.21835660334176,374.33737697413596,0.0,0.0,21668.105282076696,-1857025.846024805,26540.973273137,102098.42815774198,75558.31211456504,1121808.8445784173,38422790943.304794,27114205902.04946,118049186.63104905
0.011673151750972763,1650.0,1650.0,0.0,0.0,0.0,0.0,21226.351655877355,-1823547.1734199075,27630.078416710123,100041.4161198934,74348.86501529752,1097626.9633571352,36604918785.31032,25837604400.649265,121141918.73797317
0.01556420233463035,925.5207141222248,795.4039826047151,231.7074845502403,531.4694438086519,0.0,0.0,18447.049139446117,-1740431.2256047241,23329.097742820402,94556.42297145906,70974.91368599607,1035461.3538099793,34019101602.08099,24029534291.601646,114843192.72412081
0.019455252918287938,0.0,0.0,1415.0698100251775,1643.9322499427785,0.0,0.0,14701.689004104279,-1650813.3475805179,13445.204407700043,88273.73799309203,67306.63967596601,964363.5371852845,32094382714.186424,22693922452.72874,103271624.44344921
0.023346303501945526,1650.0,1650.0,0.0,0.0,0.0,0.0,11731.423752299033,-1589075.2425500646,-705.7945019537548,83498.07193881412,64894.68879651332,910021.2442533873,31588850043.892117,22357800038.227356,91628724.73041742
0.027237354085603113,0.0,0.0,1550.0709544518197,1650.0,0.0,0.0,10818.63814419198,-1572596.3597276916,-16610.372491885508,81582.1629265403,64551.799826047725,887885.1681012769,32420730988.837017,22955773361.44069,84028763.79553026
0.0311284046692607,621.3275349050126,552.0393682764935,351.77843900206,828.4115358205539,0.0,0.0,12104.944961614929,-1599622.7057626615,-31224.28302585092,82654.24545995537,66197.46100212022,900049.3323949123,33885651264.026558,23987044066.97388,81909029.13307247
0.03501945525291829,113.24788281071187,127.7500572213321,1650.0,1533.5294117647056,0.0,0.0,14344.952739758486,-1653258.107842751,-41789.745960969325,85762.65574616891,68996.64080082066,936590.5203418493,35111046008.77286,24837929376.438602,83756930.26531005
0.038910505836575876,1253.103685053788,1247.866788738842,535.0949874113069,360.64087891966125,0.0,0.0,15217.913553108934,-1709643.1724767403,-46555.731267059615,89358.6394711536,71727.65491614606,980575.3778787919,35508073919.16781,25099783347.75317,86246681.85465811
0.042801556420233464,1650.0,1650.0,0.0,0.0,0.0,0.0,12102.047887908913,-1747230.0738522424,-45192.85042782915,91928.99241444892,73244.13048393489,1014785.5245993827,35012097043.7407,24735340761.27914,86175857.4219024
0.04669260700389105,1210.0,1121.3504234378577,129.76424811169602,355.80682078278784,0.0,0.0,3034.5344793026957,-1754011.1116164385,-38796.62200191162,92550.39115841518,72873.82533529469,1027773.1737589613,34028864945.864437,24036705202.33534,82193889.41570215
0.05058365758754864,36.28061341268028,0.0,1265.1888303959718,1535.9464408331426,0.0,0.0,-12495.260353602405,-1730548.194832097,-29502.583019211605,91178.51696460313,70627.77284339236,1017260.287140449,33155113154.41109,23425523772.121574,75435351.56948231
0.054474708171206226,52.39414053559164,87.03822384985119,1650.0,1644.7379262989243,0.0,0.0,-33212.3483138511,-1688267.0649882902,-19850.827370924035,88589.69128940278,67163.88016782478,989953.6304374795,32843286943.010986,23216453031.57266,68756521.6469328
0.058365758754863814,1245.8525978484777,1267.2030212863356,699.9061570153353,479.5033188372625,0.0,0.0,-56305.90921770061,-1644130.107655847,-12100.93212906516,86021.12016124315,63533.96285011083,958162.85335851,33186264807.550213,23467949741.963146,65021176.66307045
0.0622568093385214,1650.0,1650.0,0.0,0.0,0.0,0.0,-78172.84679319519,-1613923.8428776416,-7694.77176913639,84661.25167096076,60813.096987054196,934703.1816257116,33916081404.947945,23985258544.018044,65394023.51202858
0.06614785992217899,1358.2696269169144,1338.9333943694207,130.97276264591437,233.31883726253145,0.0,0.0,-95391.57341113851,-1606653.3682837207,-7001.247937578657,85187.37934834594,59742.63923647579,928063.0914394436,34590801609.575356,24455279093.012028,68598558.78939801
0.07003891050583658,164.00549324788278,129.76424811169602,1251.4923323414969,1411.0414282444492,0.0,0.0,-105591.95021485552,-1621911.3704310672,-9379.14835799249,87519.60721843764,60504.796342906695,939575.9697855344,34850249447.25747,24627535630.566795,71573279.2210398
0.07392996108949416,0.0,0.0,1650.0,1650.0,0.0,0.0,-107942.87589858241,-1650874.0686594828,-13496.593085017505,90871.99848248686,62694.762062016,963482.0229455497,34599090102.54685,24441136080.03502,71191409.49081905
0.07782101167315175,1140.2838178072786,1197.4868390936142,959.7619592584116,572.1812771801328,0.0,0.0,-103133.6759041849,-1680242.4748628906,-17778.771594727474,94067.97867858072,65486.21694072926,989646.0925145427,34028999904.7963,24036655118.020008,66109672.14917622
0.08171206225680934,1650.0,1650.0,0.0,0.0,0.0,0.0,-92915.07127992401,-1697469.8651935523,-20837.468503610176,95990.64675455246,67922.2906200867,1007732.2497202095,33485344319.333607,23658824622.250423,57712770.79196734
0.08560311284046693,1453.7674525062944,1415.8754863813228,111.23369192034795,133.79262989242386,0.0,0.0,-79415.62675492966,-1695307.2811862892,-21765.88695860309,95994.32722079917,69227.819218993,1011172.3159115524,33265239401.26531,23513138820.409836,49587526.79441198
0.08949416342412451,298.17578393224994,238.15289539940485,1253.103685053788,1257.132066834516,0.0,0.0,-64505.238287889886,-1674109.825568442,-20244.294585836527,94125.67584345638,69039.94343472351,999446.2811986945,33461619229.763985,23657834255.984417,45751221.300047874
0.0933852140077821,0.0,0.0,1650.0,1650.0,0.0,0.0,-49423.87345950466,-1641271.0463262193,-16471.138666726365,91080.04860054566,67489.35076776633,977915.8722801176,33932366542.614685,23986049230.32229,48547663.74163809
0.09727626459143969,992.4170290684367,1072.9846646829938,1270.0228885328452,795.4039826047151,0.0,0.0,-34761.04925523098,-1608219.952845308,-10986.340154863927,87920.62631230021,65119.06970544941,955419.6124024218,34399270623.08971,24299473684.824577,57333165.55159852
0.10116731517509728,1650.0,1650.0,77.77294575417714,0.0,0.0,0.0,-20718.96358106065,-1586234.9676741178,-4473.238370858326,85675.04030360711,62681.67144204459,940673.5506315059,34611489938.49401,24425337168.53754,68678654.77267322
0.10505836575875487,1483.980315861753,1488.8143739986265,3.2478828107118716,127.7500572213321,0.0,0.0,-7483.438507198873,-1582632.5557885098,2388.9419609540087,84964.96997901499,60891.03810923615,938918.6022645469,34479347153.64047,24309299749.310074,78016719.19602703
0.10894941634241245,377.1572442206454,367.89196612497136,1189.8329137102312,1247.866788738842,0.0,0.0,4496.710817225107,-1598614.0596508675,8988.826990315965,85805.01715150583,60211.54930030532,950085.1333021114,34108591624.485207,24035575173.125633,81889010.28411372
0.11284046692607004,0.0,0.0,1650.0,1650.0,0.0,0.0,14456.431226629824,-1629353.095369378,14774.366483810958,87637.70915106345,60746.359303383644,969100.1638572414,33725197183.27628,23769227806.52375,79619654.79081611
0.11673151750972763,663.6507209887847,828.4115358205539,1390.8995193408105,1120.9475852597848,0.0,0.0,21503.071106011892,-1666067.960749453,19216.489574779982,89579.8760100135,62247.52559492883,988110.2581026817,33541058307.49123,23658480112.045998,73538331.17990178
0.12062256809338522,1650.0,1650.0,211.13756008239875,0.0,0.0,0.0,24945.501025083522,-1699161.4653927174,21798.525840124217,90777.28257354531,64229.171675694684,999668.4248530489,33638948626.77066,23753817122.084538,67647548.68094143
0.1245136186770428,1512.1789883268484,1496.0654612039368,0.0,87.03822384985119,0.0,0.0,24598.70195635209,-1721243.8455696234,22068.42956930018,90728.31468184387,66134.85764404613,999607.4816612826,33938175477.011166,23987167284.980263,65458665.20891934
0.12840466926070038,370.7118333714809,375.9487296864271,1071.7761501487755,1267.2030212863356,0.0,0.0,20914.66157219977,-1729037.6162612236,19756.63285361411,89455.65558515367,67500.42361592482,988502.5349563329,34253218515.11411,24218231775.068375,68160840.36325479
0.13229571984435798,0.0,0.0,1650.0,1650.0,0.0,0.0,14875.200937388046,-1723681.3924923707,14924.86198699792,87468.17537369413,68064.28420133829,971220.2954934915,34405574087.26286,24317558239.27971,74096598.61988196
0.13618677042801555,351.77843900206,502.4650949874113,1488.8143739986265,1334.0993362325476,0.0,0.0,7694.822446174391,-1709576.7336765782,8085.728727341646,85537.82280411302,67801.80407240483,954816.1453546472,34322768218.84142,24237834007.393196,79799749.92763767
0.14007782101167315,1549.6681162737468,1634.2641336690317,367.89196612497136,141.04371709773406,0.0,0.0,469.0023363232367,-1692415.2500679686,229.98099618118144,84385.93227285989,66888.39808780713,945669.7648058258,34070574100.141144,24034722119.75968,81997738.5346217
0.14396887159533073,1609.6910048065918,1537.154955367361,0.0,0.0,0.0,0.0,-6074.886243037633,-1677215.8289201502,-7279.632366047801,84403.96954583084,65617.22202058914,947008.6541737656,33805475154.472893,23829075812.60774,79458660.61929914
0.14785992217898833,414.21835660334176,356.6124971389334,828.4115358205539,1141.8951705195698,0.0,0.0,-11620.441597708423,-1667058.659840049,-12948.35943107259,85515.15343800434,64305.643193384276,957770.7164755475,33679687298.787872,23735366320.21683,73660167.29733211
0.1517509727626459,0.0,0.0,1650.0,1650.0,0.0,0.0,-16098.987939729612,-1662820.5633746285,-15477.813329518736,87224.6342503325,63219.68829561432,973196.8574625531,33755251095.432198,23798276616.57865,67920327.48914757
0.1556420233463035,235.73586633096815,289.7161821927214,1496.0654612039368,1444.0993362325476,0.0,0.0,-19424.961212734393,-1663773.5399848563,-14101.178389225204,88831.08360450235,62531.921471389345,986853.7525858501,33974816835.24891,23972204905.275536,65493309.055594526
0.15953307392996108,1414.2641336690317,1482.7718013275348,375.9487296864271,285.68780041199363,0.0,0.0,-21289.661886905542,-1668588.2581997383,-8830.203023156815,89711.05115370113,62312.730300668634,993239.1655713875,34201871718.34555,24152399559.18712,67716413.54435754
0.16342412451361868,1650.0,1650.0,0.0,0.0,0.0,0.0,-21149.628677393775,-1676200.8062168038,-533.7725149840519,89562.48605238157,62544.13497456042,989925.6526604637,34303372716.00831,24237188111.284863,73271787.48115116
0.16731517509727625,552.4422064545663,481.5175097276265,502.8679331654841,992.4170290684367,0.0,0.0,-18451.049926837273,-1686160.9255179851,9191.733835656663,88513.72135970865,63142.21711421053,978417.2368659235,34225555738.25925,24184694441.16709,79002773.20893712
0.17120622568093385,0.0,0.0,1633.8612954909588,1650.0,0.0,0.0,-13006.74460316884,-1698388.3923155528,18344.827007602064,87059.7056008593,63978.36173887039,963427.6681615883,34020438663.819244,24032699574.406784,81842661.66258381
0.17509727626459143,145.07209887846193,179.71618219272148,1536.752117189288,1485.994506752117,0.0,0.0,-5345.490464071051,-1712572.3120672998,24963.98622806033,85855.65324710553,64896.94911791913,950918.5390346529,33810754634.52821,23872716217.085777,80763211.16595004
0.17898832684824903,1275.2597848477913,1338.1277180132754,356.6124971389334,374.74021515220875,0.0,0.0,3165.874351589424,-1727618.6353917604,27587.417514201486,85452.68872718253,65733.2177560438,945711.1216499131,33716471187.41888,23795446163.13302,77601446.71369603
0.1828793774319066,1650.0,1650.0,0.0,0.0,0.0,0.0,10551.852339686797,-1741515.5637553264,25609.763754596144,86079.91500697861,66336.39439716669,949626.1062876746,33786507846.220825,23839816558.145943,76217838.01599535
0.1867704280155642,762.7489127946898,631.3984893568322,288.10482948043034,693.057907988098,0.0,0.0,14788.385964839252,-1751769.938823843,19440.474289041067,87556.14321397488,66599.32352805717,960866.3419953445,33974074221.184616,23973979376.983696,80362276.24723138
0.19066147859922178,0.0,0.0,1486.3973449301898,1650.0,0.0,0.0,14516.891130273394,-1756274.2899733128,10417.974021326485,89361.8658812643,66489.09259894471,974845.1877176609,34167473687.861626,24117173812.071537,91372583.26438443
0.19455252918287938,128.95857175555045,139.43236438544295,1650.0,1515.4016937514307,0.0,0.0,9637.881851558628,-1754229.51203061,497.20688393622027,90839.37175370763,66067.5263793587,986087.1095878576,34256295839.26496,24187937998.646294,106984791.87096235
0.19844357976653695,1248.2696269169146,1246.6582742046235,462.98695353627835,365.8777752346075,0.0,0.0,1520.439634729765,-1746680.2602934889,-8211.76749951043,91440.74830943586,65489.53768522545,990416.1435417667,34193885712.894173,24150130553.393795,121992572.46478046
0.20233463035019456,1650.0,1650.0,0.0,0.0,0.0,0.0,-7310.492917046658,-1736353.8988001547,-13936.508060900453,90927.97338611036,64972.64428069721,986558.5285774664,34020918127.08621,24030951916.226585,130530091.89632724
0.20622568093385213,1072.581826504921,959.7619592584116,176.49347676813917,507.7019913023575,0.0,0.0,-13948.479910739015,-1726776.5480550823,-15640.364525179748,89451.16456267513,64741.01309013881,976543.7998480791,33838504944.215622,23902246844.583733,128877448.73453718
0.21011673151750973,0.0,0.0,1345.3788052185855,1620.567635614557,0.0,0.0,-16087.052619686865,-1720953.7940560903,-13226.275329829003,87480.47583648506,64958.26931009693,964782.0705588544,33748305247.133533,23837500081.51709,117371483.89947115
0.2140077821011673,93.88647287708864,111.23369192034795,1650.0,1577.4639505607693,0.0,0.0,-12846.143593638571,-1720115.5667321836,-7499.72689686691,85623.93880685777,65670.30585778355,956222.7315101705,33794975726.64477,23870031950.373047,100425667.90918435
0.2178988326848249,1261.9661249713893,1253.103685053788,582.6550698100252,420.66376745250625,0.0,0.0,-5112.7522991860515,-1723040.9302322764,89.99180163902807,84405.48039161591,66778.96545925784,954352.1746190218,33943422574.945065,23975986667.49192,84608840.4809896
0.22178988326848248,1650.0,1650.0,0.0,0.0,0.0,0.0,4765.997736121483,-1726284.1206131089,7851.930466911006,84088.8009599565,68059.04401713268,959831.0407893555,34102237551.819416,24090579780.288876,75712472.43752098
0.22568093385214008,1301.0414282444494,1270.8285648889905,132.9869535362783,296.5644312199588,0.0,0.0,13851.392236122423,-1725288.8003879718,14284.807486560032,84610.64181792954,69217.10518960767,970296.3065488248,34178100568.22026,24146873798.733166,76240027.95964964
0.22957198443579765,102.74891279468987,63.673609521629714,1257.9377431906614,1479.9519340810255,0.0,0.0,19725.948998767883,-1716031.799460378,18420.686844947984,85641.31811594301,69975.98284892949,981377.4886271097,34129050922.5786,24114090897.806892,84521659.71389802
0.23346303501945526,86.63538567177841,131.37560082398716,1650.0,1590.3547722590981,0.0,0.0,21414.210439190807,-1696616.2793788435,19994.863869244924,86740.12062883387,70158.97718660686,988492.8899077629,33986483434.91734,24013748575.678383,95820606.3232215
0.23735408560311283,1238.1986724650951,1291.7761501487755,795.4039826047151,470.2380407415884,0.0,0.0,19725.05220564493,-1668226.432640276,19409.993385356527,87538.20025605979,69746.45948611014,988692.6124071835,33834630536.947758,23905396305.145603,104796202.30290517
0.24124513618677043,1650.0,1650.0,0.0,0.0,0.0,0.0,16839.647283804123,-1635068.9175438988,17523.36538214117,87874.9003691528,68885.67466471174,981813.8854695068,33760786603.227062,23851290323.401585,108041094.30808446
0.245136186770428,1411.0414282444492,1367.132066834516,127.7500572213321,172.86793316548415,0.0,0.0,15266.674199772406,-1603282.8473517045,15335.3587613823,87836.51763438131,67849.36714139464,970504.289763372,33805568234.91088,23880882277.418476,105438751.56246346
0.2490272373540856,224.859235523003,162.7969787136644,1247.866788738842,1341.3504234378574,0.0,0.0,16556.699760441123,-1579168.0287594476,13680.104661997495,87688.66166723325,66955.40715499056,959127.8582058534,33941369278.19766,23975254698.808567,99752431.71453655
0.2529182879377432,0.0,0.0,1650.0,1650.0,0.0,0.0,20300.139244690232,-1567323.9508010342,13010.382617282528,87737.04913258943,66472.209688726,952011.8672427158,34090175011.387196,24079543237.847263,94789422.67874677
0.25680933852140075,1072.1789883268482,1143.9093614099336,1119.7390707255665,631.3984893568322,0.0,0.0,23864.76234807869,-1569321.1733424906,13332.03868890462,88179.11186224605,66539.18876855625,951743.4068615992,34169248055.20669,24135238121.854923,93190580.97087792
0.2607003891050584,1650.0,1650.0,0.0,0.0,0.0,0.0,23072.06505791507,-1583334.2170750583,14291.594914141284,89009.75215253669,67126.43053890974,958189.4377897537,34137883359.868835,24113338551.48928,95020192.94506015
0.26459143968871596,1488.411535820554,1444.0993362325476,76.96726939803159,139.43236438544295,0.0,0.0,13654.885251306552,-1604824.9413144332,15371.27404893634,90019.5528469103,68045.1115859336,968612.5592751841,34018809253.1354,24029597751.2139,97840713.02681251
0.26848249027237353,367.4891279468986,285.68780041199363,1251.089494163424,1246.6582742046235,0.0,0.0,-6985.68995344227,-1628004.4838741545,16114.072880248694,90883.83117186131,69004.31080980143,978812.5253393642,33883079466.82725,23933945667.43777,98141097.77811164
0.2723735408560311,0.0,0.0,1650.0,1650.0,0.0,0.0,-38369.379194065834,-1647550.8960693632,16297.084886431552,91302.88560214134,69695.98957707097,984818.9139509593,33808292099.722378,23881063540.357506,93291893.26831427
0.27626459143968873,828.0086976424811,992.4170290684367,1334.0993362325476,959.7619592584116,0.0,0.0,-76445.5258387011,-1660004.6157469489,15994.160740701403,91133.14479366876,69882.31400957279,984452.647140634,33834642412.66201,23899445082.426083,82981790.41558559
0.2801556420233463,1650.0,1650.0,140.64087891966128,0.0,0.0,0.0,-114301.57594654668,-1664415.6577040385,15510.529826977023,90453.7104154323,69460.12829451254,978141.1384280005,33943637441.684963,23976443963.907772,69431948.56653032
0.2840466926070039,1495.6626230258637,1484.383154039826,0.0,111.23369192034795,0.0,0.0,-143932.5782626841,-1662109.303462966,15217.841518532818,89540.45624536119,68485.4640343873,968681.0610367559,34070625525.198112,24067088308.377678,56366349.431775965
0.28793774319066145,375.9487296864271,377.1572442206454,1142.2980086976424,1253.103685053788,0.0,0.0,-158539.84812705594,-1655756.8072906998,15353.060976732284,88758.5859447152,67153.4494166938,960066.3163842702,34142845606.040806,24120719908.126495,47352733.355303966
0.2918287937743191,0.0,0.0,1650.0,1650.0,0.0,0.0,-154606.36252396283,-1648165.8631628458,15857.680471009002,88418.26037532485,65741.78310119934,955866.5205022396,34120645716.467575,24109698107.369366,44385732.96094257
0.29571984435797666,502.4650949874113,664.0535591668574,1444.0993362325476,1272.0370794232088,0.0,0.0,-133037.50650083664,-1641264.3179509654,16321.089785659577,88652.82593119261,64535.33589837306,957808.8600345278,34018569715.72149,24043887298.191685,47358290.91198037
0.29961089494163423,1633.4584573128864,1650.0,285.68780041199363,73.74456397344932,0.0,0.0,-98953.57007502276,-1635629.4381780205,16058.188559288175,89369.44563167014,63753.16074357143,965121.5670210745,33895211613.57365,23963348253.07197,54526904.35782833
0.3035019455252918,1536.3492790112155,1512.5818265049209,0.0,13.721675440604258,0.0,0.0,-60174.944357940636,-1630671.51098129,14307.312445279755,90291.83764941596,63496.86555261547,974883.7080357283,33818727346.6325,23914290979.89836,63547440.24308417
0.30739299610894943,356.6124971389334,370.7118333714809,992.8198672465095,1209.5719844357977,0.0,0.0,-24891.843213082044,-1625314.9836173938,10493.941015967519,91076.89541991866,63732.280783001705,983222.3668257459,33828329472.00737,23922613762.275936,72433149.1744829
0.311284046692607,0.0,0.0,1650.0,1650.0,0.0,0.0,705.246700689998,-1618835.5197670793,4480.70103096545,91456.77873094296,64307.007261776336,986866.3013119946,33913577430.275158,23980134495.05292,79959343.35529298
0.3151750972762646,294.14740215152204,351.77843900206,1484.383154039826,1390.4966811627376,0.0,0.0,14045.291455601619,-1611473.3809795524,-3277.724925378802,91347.887974433,64997.32769615467,984434.5272076036,34022426119.881477,24050805196.02575,85465991.8341537
0.31906614785992216,1485.5916685740442,1550.0709544518197,377.1572442206454,211.94323643854432,0.0,0.0,16523.495338165776,-1604558.5545543924,-11734.242012475994,90881.97287263085,65571.19015550228,976956.1996208283,34092381838.104572,24092554597.93279,88407304.39404874
0.3229571984435798,1650.0,1610.0938429846647,0.0,0.0,0.0,0.0,12502.674497887832,-1600097.9348670568,-19422.902114756245,90346.70045824748,65850.76332862201,967432.4152308872,34086310344.872887,24081684928.236397,88120356.42966212
0.32684824902723736,482.7260242618448,414.21835660334176,664.0535591668574,1071.7761501487755,0.0,0.0,7369.951256865074,-1600000.6086033727,-24777.847738031018,90060.17636560091,65758.7750470259,959632.4489405416,34012515859.25596,24025799839.280178,84070966.27729197
0.33073929961089493,192.60700389105057,233.31883726253145,1512.5818265049209,1491.2314030670634,0.0,0.0,5374.4883460660985,-1605264.8949552649,-26525.761167956243,90231.05957217746,65337.0907064937,956613.9922691492,33918338967.924393,23958310144.853542,76438060.16648643
0.3346303501945525,0.0,0.0,1650.0,1650.0,0.0,0.0,8032.105607931,-1615465.4358105555,-24052.55909992424,90862.0535646982,64732.82295669286,959553.8288323971,33861848619.586803,23918334427.422417,66587275.44291865
0.33852140077821014,1355.449759670405,1411.8471046005952,370.7118333714809,363.86358434424346,0.0,0.0,13658.334557665472,-1628759.1471118904,-17641.65263401557,91737.2499871995,64155.323635825334,967338.6582574741,33878382461.286724,23928015652.76817,56976431.91488738
0.3424124513618677,1650.0,1650.0,0.0,0.0,0.0,0.0,18167.34655654257,-1642425.7329765218,-8504.403050888608,92500.05573503001,63815.01866740222,977055.2946816826,33960981417.63147,23980329398.1324,50354893.19995643
0.3463035019455253,618.507667658503,552.0393682764935,350.56992446784164,866.6811627374685,0.0,0.0,16807.35926172736,-1653752.31999384,1429.8901995290635,92791.84197357333,63860.401591931404,985162.3517040956,34065252744.795494,24044013028.394882,48579075.33143223
0.35019455252918286,0.0,0.0,1554.0993362325473,1650.0,0.0,0.0,6164.866793092454,-1660941.272831273,9936.335800859128,92396.69449223013,64331.00019147782,988864.1887696645,34135082494.662464,24082232585.389156,51678144.44874412
0.3540856031128405,137.41817349507892,135.0011444266422,1598.0086976424811,1500.0938429846647,0.0,0.0,-14317.537220107773,-1663712.4589920652,15040.080693207019,91334.61281794678,65140.853632822975,987143.1548343251,34134057652.466343,24073858732.014717,57751467.35354822
0.35797665369649806,1250.2838178072786,1256.3263904783703,394.882124055848,368.29480430304415,0.0,0.0,-41873.571527557506,-1663385.2781844786,15551.21633209992,89865.39254321897,66099.22930402088,981058.266606235,34064849024.88847,24025090307.524876,63858646.19165222
0.36186770428015563,1650.0,1650.0,0.0,0.0,0.0,0.0,-71164.29011219727,-1662415.4596278535,11440.474647743402,88400.30889747466,66964.6332908634,973221.0329555384,33966255465.67843,23965074448.254818,67497556.48841842
0.3657587548638132,907.3929961089493,795.4039826047151,228.88761730373082,663.6507209887847,0.0,0.0,-95965.69623056026,-1663554.848154408,3931.977430298438,87354.77755814708,67517.52101201004,966687.7702759693,33890519712.136993,23928524047.713715,67885598.23603134
0.36964980544747084,0.0,0.0,1420.7095445181965,1650.0,0.0,0.0,-111172.5609129817,-1668929.135274582,-4747.422642910946,86998.20234738603,67629.90774845185,963730.9749888628,33874412909.06368,23935676406.23402,66308655.34558448
0.3735408560311284,115.26207370107578,127.7500572213321,1650.0,1512.5818265049209,0.0,0.0,-114394.33683840129,-1679346.4216994136,-11932.851071426638,87358.2661855518,67309.14905773303,964984.1807914423,33920418427.491276,23981140057.577744,65287843.90437877
0.377431906614786,1251.8951705195695,1247.866788738842,501.25658045319295,370.7118333714809,0.0,0.0,-106583.43222462092,-1694057.7797960534,-15276.464155478923,88215.73298406226,66699.64300152294,969287.9655786934,33997890884.29042,24037742930.074734,66985085.9312219
0.38132295719844356,1650.0,1650.0,0.0,0.0,0.0,0.0,-91502.00892723691,-1711027.9217423268,-13497.56613730493,89190.8663239956,66038.82482120804,974271.7544465144,34062380797.4597,24072731888.57641,71746250.37240271
0.3852140077821012,1202.72373540856,1120.1419089036394,132.18127718013272,352.58411535820557,0.0,0.0,-74260.96482658239,-1727600.6825234576,-6908.74406471509,89887.57531871286,65578.97141008853,977407.8745640595,34081231432.11026,24066689053.85999,77671145.75691076
0.38910505836575876,26.612497138933346,0.0,1278.4824902723735,1548.4596017395286,0.0,0.0,-59494.167008568074,-1741320.5900883607,2462.6579298149436,90039.92872193188,65499.03459626724,977091.049400559,34050693311.777264,24024261766.572124,81569973.57632382
0.39299610894941633,70.92469672693983,86.23254749370561,1650.0,1614.5250629434652,0.0,0.0,-49842.86626296528,-1750636.633528721,11240.790167553827,89605.81677577106,65836.26999640474,973299.0992087824,33995438308.53652,23970805589.139835,80880372.81653617
0.3968871595330739,1271.6342412451363,1265.994506752117,629.7871366445411,422.27512016479744,0.0,0.0,-45284.067768916066,-1755272.2549189215,15503.53745215003,88773.83225543,66463.12973588421,967573.4188277768,33951879606.952904,23937269529.161934,75508519.36270665
0.40077821011673154,1650.0,1650.0,0.0,0.0,0.0,0.0,-43502.316902845276,-1756169.3277172653,11834.027378007242,87883.23996737137,67121.28527150737,962342.624734367,33945885137.318195,23942311538.46756,68485210.83157903
0.4046692607003891,1349.0043488212402,1291.3733119707024,139.43236438544295,232.9159990844587,0.0,0.0,-41107.41036159567,-1755056.7494160666,-1658.4842420314644,87289.90684829546,67505.67163663618,959881.8745779577,33978122653.32736,23981959319.26021,64880148.86114098
0.4085603112840467,155.1430533302815,88.64957656214231,1246.6582742046235,1412.249942778668,0.0,0.0,-35191.46784189275,-1753808.1459776354,-24645.79834473999,87230.60004837553,67373.32606976332,961344.8172645192,34025172237.519627,24032520960.0598,69338119.98985198
0.41245136186770426,0.0,9.290455481803633,1650.0,1650.0,0.0,0.0,-24611.015709008756,-1753804.8453393073,-54442.03502939518,87736.9943547859,66641.01193472752,966268.5720562836,34054968190.00131,24064707050.71059,83409903.33800146
0.4163424124513619,1142.7008468757153,1211.2085145342185,959.7619592584116,552.0393682764935,0.0,0.0,-10507.78634286108,-1755500.4873622102,-86498.43996723267,88630.0931423703,65436.57518285551,972752.5721970779,34046808829.023495,24060566727.334618,104095899.74145964
0.42023346303501946,1650.0,1650.0,0.0,0.0,0.0,0.0,4109.5534543033955,-1758306.7627791848,-115429.11109854843,89594.11987273158,64082.23872490317,978233.3114165952,34003874971.541924,24023462671.79243,124524538.37379166
0.42412451361867703,1443.696498054475,1390.4966811627376,111.23369192034795,135.0011444266422,0.0,0.0,15533.687435794993,-1760815.5767298592,-136302.01556666062,90298.81758673703,63009.83193807985,980533.5371933011,33951035729.676643,23975563963.996838,136660359.72268292
0.4280155642023346,285.68780041199363,211.94323643854432,1253.103685053788,1255.9235523002976,0.0,0.0,20803.706730213733,-1761274.7517625128,-145838.64585143107,90522.01583885182,62631.230697934305,978754.7320728113,33919627165.23002,23944632390.196095,134883716.796002
0.43190661478599224,0.0,0.0,1650.0,1650.0,0.0,0.0,18858.16008526052,-1758168.4908192856,-143179.9782676546,90226.33750333845,63204.034089116496,973648.6793651669,33928537868.09204,23947959707.284874,118752760.01271227
0.4357976653696498,992.4170290684367,1071.7761501487755,1272.0370794232088,795.4039826047151,0.0,0.0,10952.07578133439,-1750733.3505295645,-129997.16801643002,89563.45073405014,64736.54946715313,967318.2611304432,33972896738.5605,23982733432.54627,93552159.55320024
0.4396887159533074,1650.0,1650.0,73.74456397344932,0.0,0.0,0.0,186.08083755032018,-1739264.87321899,-109918.90188121522,88808.03436583115,66965.44883914702,962370.8526955466,34026942947.773655,24028179655.34667,68242819.28945056
0.44357976653696496,1483.980315861753,1488.8143739986265,13.721675440604258,127.7500572213321,0.0,0.0,-9660.058696161139,-1725128.5677776313,-87454.08455914354,88250.11084059627,69416.99856111441,960868.5376482159,34059191411.017868,24057944494.012188,51672695.49324991
0.4474708171206226,377.1572442206454,367.89196612497136,1209.5719844357977,1247.866788738842,0.0,0.0,-15533.391986380657,-1710465.7155872865,-66742.02751930185,88088.51299323527,71535.75797937435,963499.1662753926,34050822947.525566,24055351382.73011,48774984.38204057
0.45136186770428016,0.0,0.0,1650.0,1650.0,0.0,0.0,-16212.727970480546,-1697662.5582286238,-50511.138167269215,88365.19247694273,72842.12370595419,969300.3219585947,34006490758.696796,24022715743.489193,58525474.949441195
0.45525291828793774,664.0535591668574,828.4115358205539,1390.4966811627376,1120.9475852597848,0.0,0.0,-12695.509020730877,-1688715.0700729296,-39553.206567296285,88961.9877057401,73069.81605997254,976043.4714968117,33951341662.341125,23979531402.943092,74616787.92884554
0.4591439688715953,1650.0,1650.0,211.94323643854432,0.0,0.0,0.0,-7729.773491002337,-1684657.2064687295,-32846.57648061105,89656.25029078196,72240.0923553041,981119.9154032939,33916189150.943516,23950852754.468678,88522109.9287137
0.46303501945525294,1512.5818265049209,1496.0654612039368,0.0,87.03822384985119,0.0,0.0,-4681.856233156222,-1685218.0194861263,-28245.10709218339,90209.64100928104,70649.45464122458,982570.8916741018,33919639997.57766,23952781548.081158,93490255.90538377
0.4669260700389105,369.90615701533534,375.9487296864271,1071.7761501487755,1267.2030212863356,0.0,0.0,-6180.122592720329,-1688827.6930871385,-23464.01558167622,90453.88074365896,68775.32021923289,979850.5330420313,33957599945.55566,23983452179.198566,87588459.64077267
0.4708171206225681,364.6692607003891,502.4650949874113,1488.8143739986265,1334.0993362325476,0.0,0.0,-13053.828510908152,-1693008.5404609062,-17002.350558044905,90341.62303453736,67130.29282367793,974022.0072395735,34006121944.095963,24024547285.87627,74391870.30681543
0.47470817120622566,1556.1135271229114,1633.8612954909588,367.89196612497136,141.04371709773406,0.0,0.0,-23967.653143682743,-1695079.90771444,-8677.006013728884,89947.1001758648,66111.57748801634,967317.1231157681,34035714728.744446,24052213711.222492,61065089.74213698
0.4785992217898833,1605.662623025864,1536.752117189288,0.0,0.0,0.0,0.0,-35885.01467641574,-1693002.2841325928,407.13729126198604,89422.3053140774,65892.5216834788,962244.1697751171,34028612861.211617,24050887255.639347,54825262.57534432
0.48249027237354086,412.6070038910506,356.6124971389334,828.4115358205539,1142.2980086976424,0.0,0.0,-45180.31293410563,-1686118.087538869,8414.966395768819,88931.34999927558,66388.34434250859,960605.4926914726,33988935570.25496,24022025618.10184,59514226.54519537
0.48638132295719844,0.0,0.0,1650.0,1650.0,0.0,0.0,-48979.813321821006,-1675543.144555065,13633.43707703983,88591.73922451568,67303.14966343521,962815.7425592425,33939953673.267555,23982863069.31614,73894943.73846105
0.490272373540856,246.20965896086054,289.7161821927214,1496.0654612039368,1445.7106889448387,0.0,0.0,-46231.137884784235,-1664037.2415234721,15273.694208935933,88444.97635381736,68238.92623579445,967784.4735934144,33910253521.958775,23956140757.085617,92403968.7201575
0.49416342412451364,1427.557793545434,1482.7718013275348,375.9487296864271,282.0622568093386,0.0,0.0,-38108.31563838841,-1655323.8618540023,13895.032142625974,88463.79336087668,68828.27215649471,973396.4555274957,33916995662.414856,23956919871.75978,107889641.39889136
0.4980544747081712,1650.0,1650.0,0.0,0.0,0.0,0.0,-27609.058049510855,-1653002.509091674,11263.823968377954,88586.52990387248,68847.1193720945,977383.8237961202,33956024443.2236,23984113463.326355,114938309.91298516
0.5019455252918288,0.0,0.0,1650.0,1650.0,0.0,0.0,-18497.74174405904,-1659348.5068673568,9676.518575811997,88758.17123409887,68272.99006069916,978232.1603677615,34004471923.641724,24021486051.061626,112176961.21273878
0.5058365758754864,538.7205310139619,481.5175097276265,502.4650949874113,1015.7816433966583,0.0,0.0,-13981.350727427685,-1674370.2823530734,10988.212874064942,88956.79517389926,67274.45570422972,975757.2175257212,34034185631.55402,24047327221.740017,102514821.44587539
0.5097276264591439,0.0,0.0,1633.8612954909588,1650.0,0.0,0.0,-15592.91553370983,-1695456.7050052618,15717.655117535061,89193.41585320832,66141.08511242227,971129.6892629445,34028073059.85394,24047046619.058212,91336168.84021847
0.5136186770428015,154.74021515220875,179.71618219272148,1536.752117189288,1492.4399176012816,0.0,0.0,-22670.887287880803,-1717795.2159967823,22594.32334987813,89487.71453914561,65182.03526659434,966352.8048178002,33989881160.305027,24021393374.27812,83649952.71964881
0.5175097276264592,1290.97047379263,1338.1277180132754,356.6124971389334,364.6692607003891,0.0,0.0,-32600.782734882385,-1735513.1088174512,28769.680926522116,89834.9281703872,64629.41757057658,963418.2546657167,33941851504.007572,23985680480.89906,81656979.43418999
0.5214007782101168,1650.0,1650.0,0.0,0.0,0.0,0.0,-41712.65274557432,-1743258.3200742484,30679.730514667877,90184.15051670141,64577.65458546683,963491.0339304577,33911761383.057827,23960661922.46903,83914252.15091163
0.5252918287937743,0.0,0.0,1492.8427557793545,1650.0,0.0,0.0,-46504.389003804405,-1737771.2468531409,25301.700506463723,90443.06060741366,64974.84328125319,966454.3520146334,33916951868.494675,23960487371.675816,86428898.29103997
0.5291828793774319,130.1670862897688,139.02952620737017,1638.2925154497595,1496.0654612039368,0.0,0.0,-44763.94168795013,-1718966.9977829794,11382.798329043726,90510.94942819135,65662.7163437946,970992.2609740667,33954561570.31373,23984716351.500233,85040577.99888353
0.5330739299610895,1249.0753032730602,1247.0611123826964,429.52620737010756,375.9487296864271,0.0,0.0,-36220.89298243799,-1690169.0593545935,-9803.168804792105,90326.93649772234,66445.2904123882,975164.7113993848,34003470268.84684,24018889089.174084,77833641.82320394
0.5369649805447471,738.1757839322499,630.9956511787594,285.68780041199363,828.4115358205539,0.0,0.0,-22540.206272239648,-1657380.2806354412,-34480.43606293885,89910.5830976373,67158.33107822873,977229.1405428227,34036636356.30507,24043139797.68458,66346491.76065029
0.5408560311284046,1650.0,1650.0,0.0,0.0,0.0,0.0,-6705.9801699764885,-1627770.8194357108,-57235.180465149795,89372.70426550147,67714.52216550575,976365.7734150774,34036564768.836483,24043731028.09504,54977578.63862528
0.5447470817120622,1037.5349050125885,953.7193865873198,182.13321126115818,502.8679331654841,0.0,0.0,7955.772344792129,-1607810.0491324745,-72493.05657232589,88885.56214081033,68110.8587528885,973008.5842911309,34004977645.667408,24020820389.107155,48894312.209176615
0.5486381322957199,0.0,0.0,1357.866788738842,1633.4584573128864,0.0,0.0,18767.112205953865,-1601586.8558620121,-76166.12605226839,88619.38784469491,68400.35565785674,968650.1250213444,33961264515.789482,23988077519.20062,51482396.86391278
0.5525291828793775,99.12336919203482,107.18013275349051,1650.0,1537.9606317235066,0.0,0.0,24381.956969538176,-1609808.143525287,-66948.61622752342,88668.74171719495,68643.64707070173,965206.707437577,33930855362.6336,23964542996.39895,62581488.88138024
0.556420233463035,1259.14625772488,1257.9377431906614,549.5971618219271,358.2238498512245,0.0,0.0,24980.516626821554,-1629754.1758799395,-46836.57969187163,88999.9978088464,68862.60305972453,964210.8392570289,33930450172.065983,23963569154.7841,78356800.04602398
0.5603112840466926,1650.0,1650.0,0.0,0.0,0.0,0.0,21975.42981966373,-1656170.7457917128,-20685.105934085524,89445.97181791459,69015.74736357843,966166.8793461812,33958722393.65366,23985258534.63764,92865933.99512427
0.5642023346303502,82.60700389105055,8.484779125658065,1255.9235523002976,1482.7718013275348,0.0,0.0,17392.961752729214,-1682791.5827386796,5079.966915315662,89756.52041818471,69005.49586514279,970336.3124231423,33997781602.36545,24016673962.91637,100584836.81673045
0.5680933852140078,11.304646372167554,79.78713664454108,1650.0,1650.0,0.0,0.0,13177.779172229219,-1704005.1393582236,24211.55590268882,89691.16127883061,68714.17734873085,975040.4431722553,34024333134.006004,24039541553.90867,98730798.81360972
0.5719844357976653,1210.402838178073,1270.4257267109176,795.4039826047151,481.5175097276265,0.0,0.0,10656.574891097567,-1716165.3331157377,32324.901246190668,89120.57493545658,68054.54113789042,978354.6044228309,34023826103.29979,24040867968.625385,88348085.99248852
0.5758754863813229,1282.913710231174,1162.8427557793545,135.0011444266422,289.7161821927214,0.0,0.0,10301.613029302447,-1718195.3211290506,28015.68987601385,88096.57991123862,67015.10499741395,978906.9301552533,33999201791.04659,24020310404.560917,73719867.30148514
0.5797665369649806,1650.0,1650.0,0.0,0.0,0.0,0.0,11805.749840086793,-1711389.083760176,13099.61860158506,86858.78209035355,65682.90780757714,976452.0743540083,33969077940.468864,23990126504.033382,60440831.01758549
0.5836575875486382,1390.0938429846644,1334.0993362325476,127.7500572213321,179.71618219272148,0.0,0.0,14369.167019511262,-1698584.0265651657,-8059.254584615796,85768.3021030086,64234.758244208686,971982.9606310102,33956422932.008427,23967878255.81257,53065644.785928115
0.5875486381322957,211.94323643854432,141.04371709773406,1247.866788738842,1338.1277180132754,0.0,0.0,17044.79061487383,-1683064.4548039993,-29883.957554124583,85186.83918521904,62899.41914336391,967333.3533283306,33974363537.096813,23966225542.883774,53383334.35344024
0.5914396887159533,0.0,0.0,1650.0,1650.0,0.0,0.0,19006.141718546936,-1667599.5660163567,-47148.08404884349,85342.15572346402,61903.045549862196,964432.9207222296,34017495070.541134,23985734227.9612,60019895.56606226
0.5953307392996109,1071.3733119707026,1141.8951705195698,1121.3504234378577,631.3984893568322,0.0,0.0,19670.39900163081,-1653914.5360908983,-56292.04813183311,86229.5832067248,61415.1587620732,964519.1133929123,34063933761.831207,24014777378.95638,69427906.65118739
0.5992217898832685,1650.0,1650.0,0.0,0.0,0.0,0.0,18693.446155397927,-1642688.977142327,-56130.96690144107,87589.219362627,61511.10378476865,967628.437077211,34087176204.653297,24036453070.96377,77694565.75005771
0.603112840466926,1488.411535820554,1444.0993362325476,87.03822384985119,139.43236438544295,0.0,0.0,15913.133811720214,-1633958.30182004,-47813.683391032224,88972.9479281605,62160.326939368446,972576.2055889722,34071158499.543613,24038409426.131912,82274997.42071557
0.6070038910505836,367.4891279468986,285.68780041199363,1267.2030212863356,1246.6582742046235,0.0,0.0,11327.11566604586,-1627646.689226993,-34139.37638788732,89883.23461356449,63240.77514867392,977434.9179198503,34019984699.15476,24019872081.82134,82866558.90615538
0.6108949416342413,828.0086976424811,992.4170290684367,1334.0993362325476,959.7619592584116,0.0,0.0,5151.926491573455,-1623939.7183959596,-18527.321456604022,89938.66217992752,64571.71490094299,980318.0159899654,33956714399.40438,23991882538.108303,81105356.76253583
0.6147859922178989,0.0,0.0,1650.0,1650.0,0.0,0.0,-2056.9777445469967,-1623311.9747037303,-4008.084057528497,89009.59221228538,65953.00846553073,980150.6730698698,33911698919.459435,23970732343.93685,79350132.29411617
0.6186770428015564,1650.0,1650.0,141.04371709773406,0.0,0.0,0.0,-9304.033406859233,-1626209.452550646,7453.476230277236,87275.87970785439,67199.38346975177,977113.3203795529,33906781594.551815,23968491371.58751,79239919.27924155
0.622568093385214,1496.8711375600824,1484.383154039826,0.0,111.23369192034795,0.0,0.0,-15172.097436476435,-1632566.7150556808,15149.2619713821,85184.51616429885,68162.5938960802,972575.3100470323,33943960479.528477,23986130664.804054,80778809.03467372
0.6264591439688716,374.74021515220875,377.1572442206454,1142.2980086976424,1253.103685053788,0.0,0.0,-18030.321863224766,-1641435.364134685,19369.333285723245,83319.2634694906,68740.3334476031,968542.2014517308,34004607445.820183,24013151880.74952,82397429.13998854
0.6303501945525292,519.787136644541,664.0535591668574,1444.0993362325476,1272.0370794232088,0.0,0.0,-16427.117663386158,-1650969.3655247851,20883.518963589748,82224.51153248268,68875.72880296435,966837.3287641839,34059500731.17682,24033825354.633873,81926614.92559029
0.6342412451361867,0.0,0.0,1650.0,1650.0,0.0,0.0,-9576.608641004726,-1658863.815667057,20418.21930635958,82240.97448795197,68553.35284784422,968346.8854950332,34084051854.56515,24036335786.647022,77950306.15272215
0.6381322957198443,1639.5010299839782,1650.0,285.68780041199363,73.74456397344932,0.0,0.0,2216.9688571162005,-1663137.1597477316,18344.95876218507,83406.12371905326,67796.52349856695,972633.8731511607,34070445835.542034,24019524211.576984,70810421.2615704
0.642023346303502,1533.9322499427788,1512.5818265049209,0.0,13.721675440604258,0.0,0.0,17363.58343163498,-1662969.9104913215,14679.79593005879,85449.48729425918,66667.2320264322,978079.4556694845,34030359590.120724,23993385603.86173,62709184.50608215
0.6459143968871596,358.2238498512245,370.7118333714809,992.4170290684367,1209.5719844357977,0.0,0.0,33135.48748306903,-1659244.4085516387,9348.258598146125,87880.63476269686,65266.32320249624,982499.5478295936,33987274505.700787,23973136241.806644,56808462.18080198
0.6498054474708171,0.0,0.0,1650.0,1650.0,0.0,0.0,46173.73037725159,-1654507.6411426223,2557.211702358763,90137.4928006479,63729.47393321815,983994.440493446,33963093265.938923,23970367040.117058,55738674.23231366
0.6536964980544747,304.21835660334165,351.77843900206,1484.383154039826,1392.9137102311743,0.0,0.0,53251.64236776842,-1652281.6441512161,-4925.066717270262,91745.05361933654,62215.173049893616,981696.0297983052,33966647409.013596,23986419873.567104,60248996.40656705
0.6575875486381323,1498.4824902723735,1550.0709544518197,377.1572442206454,206.70634012359812,0.0,0.0,52101.831781607114,-1655899.9733356338,-11735.410441507458,92434.97230275445,60884.06411784276,976117.8455540637,33990251142.682785,24011765337.41774,68694039.77049431
0.6614785992217899,1650.0,1610.4966811627373,0.0,0.0,0.0,0.0,42077.719010228786,-1667255.1789316207,-16177.934258714822,92193.63288073258,59873.25665324355,968970.8933052568,34015681428.155106,24031650369.16115,77668341.8584616
0.6653696498054474,465.0011444266422,414.21835660334176,664.0535591668574,1099.1691462577248,0.0,0.0,24454.916751853652,-1685915.267131812,-16707.938551170948,91232.69424721152,59272.561186187784,962519.8469538313,34025641093.775272,24034673375.83925,83546426.27146888
0.669260700389105,0.0,0.0,1650.0,1650.0,0.0,0.0,2271.8964086126493,-1708968.7486527457,-12472.049343707364,89901.73912658435,59110.38793294545,958734.7355135349,34013891312.362823,24019309449.519882,84227792.39678657
0.6731517509727627,203.88647287708864,233.31883726253145,1520.235751888304,1498.4824902723735,0.0,0.0,-20265.84407359329,-1731715.1325120758,-3712.4171358626877,88578.40978779248,59354.635713224954,958571.2235944502,33988333370.828762,23994658662.437584,80249607.71175651
0.6770428015564203,1370.7576104371708,1411.8471046005952,362.2522316319524,351.77843900206,0.0,0.0,-38676.45774416046,-1749015.173532291,8112.271335214323,87572.76387071991,59928.999988065574,961657.6792992871,33965600221.558605,23975065235.591633,74693140.75718719
0.6809338521400778,1650.0,1650.0,0.0,0.0,0.0,0.0,-49169.535964562405,-1756864.5252007523,20540.513990631338,87070.84039657513,60739.55472015735,966502.5687641132,33960639267.416233,23971785070.42846,71860758.80108193
0.6848249027237354,600.3799496452277,552.4422064545663,509.7161821927214,994.0283817807278,0.0,0.0,-49458.153134787586,-1753652.59233369,30599.81413053746,87123.79515789283,61702.4144686524,971128.0892922016,33977514569.748047,23986534223.306232,75284471.07509841
0.688715953307393,0.0,0.0,1623.3875028610667,1650.0,0.0,0.0,-39228.56776572177,-1740659.7697213804,35438.89460463819,87671.66981927742,62762.48263729187,973868.6914857437,34006749233.466755,24010607131.912262,85966650.88981159
0.6926070038910506,135.403982604715,138.2238498512245,1549.6681162737468,1484.383154039826,0.0,0.0,-20171.62635486029,-1721604.1414446183,32934.087974781345,88581.64315551339,63896.27718906056,974012.6126159822,34030614181.617348,24030005651.09903,101679789.71032476
0.6964980544747081,1253.5065232318607,1264.3831540398257,375.9487296864271,377.1572442206454,0.0,0.0,4412.369518338543,-1701383.033332744,22130.539596552975,89682.06795815476,65097.693108991414,972033.6869905759,34033180589.271847,24033560329.765583,117688633.58866034
0.7003891050583657,1650.0,1650.0,0.0,0.0,0.0,0.0,30327.329463657996,-1684444.3482063448,3442.5885206733296,90783.38878665361,66352.25678299046,969330.2111256365,34009324199.503754,24019341499.37838,128614237.39839327
0.7042801556420234,854.596017395285,773.2478828107118,237.7500572213321,664.0535591668574,0.0,0.0,53342.56380645838,-1673359.7847296821,-21391.481221685277,91689.26854554855,67610.4769121716,967588.2161525849,33967627878.76365,23995692576.946026,130634081.01222564
0.708171206225681,0.0,0.0,1435.2368963149463,1650.0,0.0,0.0,70011.20750370037,-1668103.5080387222,-49554.37889278773,92209.32085813812,68772.30902495379,968037.0383800779,33925724296.295536,23976344275.627514,123052359.85852173
0.7120622568093385,119.29045548180363,123.31883726253147,1650.0,1512.5818265049209,0.0,0.0,78278.86863976673,-1666287.5211897127,-77530.88367712511,92184.5060237989,69691.76430263788,970905.4100900171,33900909629.1825,23972469547.702744,108556630.47346137
0.7159533073929961,1251.4923323414969,1255.1178759441518,475.47493705653466,370.7118333714809,0.0,0.0,77771.2830834609,-1664259.161414127,-101571.73522798221,91527.5684394939,70204.09248877162,975301.2129895213,33901382718.472282,23986264704.28135,92069783.2478317
0.7198443579766537,1123.7674525062944,983.9322499427788,152.32318608377204,351.77843900206,0.0,0.0,69723.30387528469,-1658652.8275150554,-118206.09082966938,90268.23926372008,70169.8588584243,979563.0666104577,33922862342.028397,24009725095.634964,78732303.9815986
0.7237354085603113,0.0,0.0,1302.2499427786677,1550.0709544518197,0.0,0.0,56587.21181828732,-1647822.538667506,-124774.71230509398,88582.99159360756,69523.35532864714,981938.5980269266,33952083380.70997,24029279137.369663,71917947.78254138
0.7276264591439688,1650.0,1650.0,0.0,0.0,0.0,0.0,41422.12121309127,-1632625.859099544,-119938.06663011934,86787.84796560268,68309.59075560058,981310.9977957148,33974739265.91546,24033591992.9837,72130901.37966661
0.7315175097276264,86.63538567177841,107.58297093156328,1650.0,1610.0938429846647,0.0,0.0,27207.178322301657,-1616267.7222081355,-104076.7965404381,85282.41488245387,66695.93048625966,977675.9651962759,33983099057.143894,24020065450.05563,77192287.85887687
0.7354085603112841,1266.800183108263,1254.7150377660791,630.1899748226139,414.21835660334176,0.0,0.0,16232.079513982502,-1603257.5980047868,-79468.48030058878,84451.28738813283,64951.03724899842,972172.7577072432,33979045587.538902,23996340993.85237,83518401.31242484
0.7392996108949417,1650.0,1650.0,0.0,0.0,0.0,0.0,9696.601894579102,-1597858.3656203873,-50122.73764068734,84548.3610096929,63393.277323778435,966654.1667682398,33971217189.90006,23975983651.715897,87814423.401114
0.7431906614785992,1333.696498054475,1272.0370794232088,139.43236438544295,233.31883726253145,0.0,0.0,7599.569558649251,-1602590.5194888155,-21207.10478155599,85602.02765764778,62320.34206781203,962967.2828975688,33968468201.42981,23970828884.780075,88376539.08467573
0.7470817120622568,141.04371709773406,73.74456397344932,1246.6582742046235,1411.8471046005952,0.0,0.0,8926.763051575235,-1617332.9879631058,1901.4613551091006,87378.34394078338,61938.480807556836,962234.2132091549,33973899588.94343,23984335266.798603,85456539.78947432
0.7509727626459144,0.0,13.721675440604258,1650.0,1650.0,0.0,0.0,12072.452386179773,-1639340.8719005554,14775.837949999046,89423.58397539171,62311.20943928327,964422.2128277802,33983117206.7708,24009670118.30212,80647378.94162965
0.754863813229572,1141.8951705195698,1209.5719844357977,959.7619592584116,552.0393682764935,0.0,0.0,15369.40787962889,-1664163.3769307693,15035.201615311937,91181.60616216352,63342.90802675463,968376.0785661783,33987609449.74608,24033548912.75636,75733718.01921698
0.7587548638132295,1650.0,1650.0,0.0,0.0,0.0,0.0,17574.69943865725,-1687117.4131322603,3062.548632661717,92154.23567811151,64803.387549897714,972299.3540624091,33980928211.494865,24043611645.961685,71677259.01950565
0.7626459143968871,1443.696498054475,1390.4966811627376,111.23369192034795,135.0011444266422,0.0,0.0,18173.353640086032,-1704775.0674040471,-17916.29223698149,92054.71565581267,66387.86441131348,974490.0898939173,33963650197.31602,24035181072.414413,68272761.96244913
0.7665369649805448,285.68780041199363,211.94323643854432,1253.103685053788,1255.9235523002976,0.0,0.0,17417.34445471089,-1715928.5483057545,-42496.74959169578,90902.78465199779,67796.23145788247,974034.3808381698,33943888427.528408,24013671652.65133,64604245.82210772
0.7704280155642024,0.0,0.0,1650.0,1650.0,0.0,0.0,16098.972060957703,-1721700.5102008039,-64392.40608145211,89026.79433568726,68809.29812754979,971177.811502211,33932896670.375458,23991415927.14633,59975893.31987003
0.77431906614786,992.4170290684367,1071.7761501487755,1272.0370794232088,795.4039826047151,0.0,0.0,15141.36965444167,-1724792.943903815,-78046.18766226294,86968.35047397323,69339.89021739585,967224.3570293383,33938361302.555866,23980799796.285557,54730567.57989951
0.7782101167315175,1650.0,1650.0,73.74456397344932,0.0,0.0,0.0,15148.12629408147,-1728191.3537487104,-80108.88844295115,85317.92689298934,69443.61426105554,964002.1491707893,33959454491.669952,23987586304.272625,50435250.33370781
0.7821011673151751,1485.1888303959718,1488.8143739986265,13.721675440604258,127.7500572213321,0.0,0.0,16068.63787017018,-1733841.2825174027,-70342.49390543227,84533.98888790824,69285.93895413193,963109.6601819271,33986735115.002556,24008079585.660786,49266898.385905735
0.7859922178988327,375.5458915083543,367.89196612497136,1209.5719844357977,1247.866788738842,0.0,0.0,17099.40178648333,-1741816.67796154,-51654.51157762264,84804.51115963535,69075.64484160772,965244.5892697575,34007117923.885155,24031530687.67776,52882890.16913303
0.7898832684824902,0.0,0.0,1650.0,1650.0,0.0,0.0,16864.547319900223,-1750303.977693494,-29224.404501561046,85995.81763222297,68985.57151997747,969885.7083790728,34011099636.04619,24046237673.03785,61366495.1621516
0.7937743190661478,681.7784390020599,828.4115358205539,1390.4966811627376,1121.3504234378577,0.0,0.0,13826.071445388177,-1756406.4621945515,-8966.04564819748,87704.18007576124,69086.39593029283,975458.1110480145,33998045760.255444,24045817028.520977,72834906.46725489
0.7976653696498055,1650.0,1650.0,211.94323643854432,0.0,0.0,0.0,6796.303411046881,-1757451.2733699859,4212.393564344939,89391.00667062968,69316.01871886084,979920.6135260058,33976438971.36813,24032192223.073425,83981842.39308876
0.8015564202334631,1511.3733119707026,1496.0654612039368,0.0,87.03822384985119,0.0,0.0,-4611.58462082203,-1752278.6805523254,7813.82754334717,90554.96968906999,69496.51965419194,981546.8086714684,33958930414.19582,24013841031.425804,91357571.92111556
0.8054474708171206,370.3089951934081,375.9487296864271,1071.3733119707026,1267.2030212863356,0.0,0.0,-19742.04078751568,-1741987.4519493678,2382.8834450056875,90883.62232670005,69395.4894534232,979594.7088285938,33955085383.046085,24000566583.606743,92805829.51428749
0.8093385214007782,0.0,0.0,1650.0,1650.0,0.0,0.0,-36946.27843450147,-1729805.806035303,-8834.277828136484,90336.33959427735,68813.45743682118,974603.897531485,33966069762.938454,23997941799.015995,88376580.06403625
0.8132295719844358,387.63103685053784,502.4650949874113,1485.5916685740442,1336.1135271229114,0.0,0.0,-53912.49694522866,-1720083.3650970855,-21083.837942175993,89135.88432939077,67669.04865171462,968205.5233103046,33984375194.790688,24004590669.219,80270674.19081728
0.8171206225680934,1569.8100251773863,1633.8612954909588,363.4607461661707,136.20965896086057,0.0,0.0,-68180.99996291871,-1716735.7028149965,-29755.920555269546,87677.93244559651,66052.10881906607,962520.7921350206,33998697655.582714,24013682833.619793,71832105.36428803
0.8210116731517509,1591.5632867933166,1536.752117189288,0.0,0.0,0.0,0.0,-77694.64905980662,-1721694.5542355767,-31947.60354962703,86394.85365669873,64223.45344419667,959382.5059078843,34001022151.703735,24017524518.52042,66059540.5718597
0.8249027237354085,399.7161821927215,356.6124971389334,828.4115358205539,1167.676813916228,0.0,0.0,-81231.1376525714,-1733939.8348037254,-27421.38618943162,85622.62394475644,62556.09625582248,959679.5261439744,33991638386.349857,24012387771.118164,64336889.12432889
0.8287937743190662,0.0,0.0,1650.0,1650.0,0.0,0.0,-78607.79111354388,-1749502.6017628452,-18645.4773011234,85514.31022141968,61432.011852544325,963071.3741557146,33979019772.68434,24000705847.507473,65971898.9744903
0.8326848249027238,260.3089951934081,289.7161821927214,1496.0654612039368,1449.7390707255665,0.0,0.0,-70624.4393670656,-1762495.6795051945,-9909.175119039326,86023.26615800471,61124.525742628146,968171.9788262631,33974551364.46683,23989422245.545322,68737799.95009303
0.8365758754863813,1444.0993362325476,1482.7718013275348,375.9487296864271,273.1998168917372,0.0,0.0,-58788.563394246215,-1766868.4674690187,-5814.766093057264,86952.45298876947,61703.70844455118,973117.698577828,33985204020.84194,23985595215.45207,70128960.0735257
0.8404669260700389,1650.0,1650.0,0.0,0.0,0.0,0.0,-44923.39278793351,-1758322.4301228023,-9652.967622993963,88043.44724770331,62997.5816382954,976288.1484121137,34008577793.46194,23991960633.627747,68702075.14542024
0.8443579766536965,526.2325474937056,482.32318608377204,502.4650949874113,1074.596017395285,0.0,0.0,-30777.91020547367,-1735756.2878864591,-22203.43000510591,89067.87613573669,64626.164168918294,976896.0145018465,34033457573.26853,24005127761.429306,64841639.05177694
0.8482490272373541,0.0,0.0,1633.8612954909588,1650.0,0.0,0.0,-17736.626432471774,-1701758.9648288572,-41355.35061612576,89888.2561757171,66102.84346478208,975222.5346319635,34045837572.680424,24017479286.37097,60574986.56582953
0.8521400778210116,166.82536049439227,185.35591668574045,1537.154955367361,1488.411535820554,0.0,0.0,-6679.176484432736,-1661981.6201325823,-62667.59890338329,90471.52899284464,66975.28924169391,972422.1593249592,34037108697.692078,24021639346.243183,58527798.085800916
0.8560311284046692,1313.9322499427788,1345.7816433966582,357.0153353170062,367.89196612497136,0.0,0.0,2014.3917103479266,-1623588.4750665016,-80677.72408241694,90859.53014150057,66963.55451292661,969992.8198069386,34009675795.84228,24014863022.94988,60531821.230586074
0.8599221789883269,1650.0,1650.0,0.0,0.0,0.0,0.0,8357.709834619302,-1593282.9788751786,-90529.42074134784,91117.44985612719,66051.45521529262,969137.8121715807,33976562826.192806,24000759280.056828,66572588.54787102
0.8638132295719845,691.4465552758069,625.7587548638132,294.5502403295948,828.4115358205539,0.0,0.0,12612.79608064686,-1575531.64114477,-89396.72392380983,91287.58022551464,64500.062583189356,970280.8966241634,33954898912.58294,23987329865.687473,74613136.94511561
0.867704280155642,0.0,0.0,1506.1364156557565,1650.0,0.0,0.0,15157.78467889395,-1571524.368106018,-77266.0993344621,91369.5805286411,62775.73549764224,972925.8001233307,33956689220.279427,23982455082.682217,81421044.0945188
0.8715953307392996,132.9869535362783,132.18127718013272,1622.9846646829935,1496.0654612039368,0.0,0.0,16395.773676490768,-1579152.0528892337,-56860.53585750726,91333.62732776174,61412.28929260597,975905.6610927333,33981954121.136993,23989428940.86248,84050085.45441629
0.8754863813229572,1249.0753032730602,1257.132066834516,407.77294575417716,375.9487296864271,0.0,0.0,16706.810803088745,-1593942.7619266629,-32772.47566558771,91156.15894689725,60848.80346868243,977907.4777481348,34018166860.260864,24005098060.225105,81304329.74780914
0.8793774319066148,1650.0,1650.0,0.0,0.0,0.0,0.0,16428.572332647367,-1610594.6437587314,-10117.925698448704,90856.92470750504,61293.731700317236,978046.5581123948,34046522988.978127,24021639820.114204,74491601.82466051
0.8832684824902723,981.1123826962692,829.2172121766994,203.48363469901585,502.4650949874113,0.0,0.0,15848.760299950918,-1624576.8122196526,6847.228094376423,90515.43879922495,62658.87436814033,976250.0126519023,34051799912.22451,24030922918.755173,67068711.65985043
0.8871595330739299,0.0,0.0,1379.6200503547723,1633.8612954909588,0.0,0.0,15200.063764600003,-1633287.8236790407,15731.376496513569,90254.79354804325,64585.216176958005,973291.325960286,34030515788.485203,24028940499.843292,63265329.30470603
0.8910505836575876,1254.3121995880063,1250.2838178072786,550.4280155642023,356.6124971389334,0.0,0.0,14658.27558123844,-1636448.0858507615,16371.990013496908,90196.58978130428,66553.35085607583,970464.6169897645,33992936309.3093,24017815626.825085,66235440.98644543
0.8949416342412452,1650.0,1650.0,0.0,0.0,0.0,0.0,14347.816709560082,-1635684.0133798684,10529.400144059486,90405.3778763162,68043.74934979815,969036.6416163414,33957771068.84677,24004317715.004215,76521790.87525304
0.8988326848249028,1271.6342412451363,1121.3504234378577,135.0011444266422,289.7161821927214,0.0,0.0,14353.59820806054,-1633536.1447769443,1093.7209538049462,90847.83198107852,68695.6627254191,969705.8063439247,33942352592.910698,23995841840.62681,91522087.9607423
0.9027237354085603,73.74456397344932,0.0,1255.9235523002976,1482.7718013275348,0.0,0.0,14727.792927676352,-1632297.5278404336,-8879.729971401955,91387.5924705623,68413.67766272882,972293.7428671046,33953538002.0433,23996222731.760174,106249907.6844339
0.9066147859922179,13.721675440604258,87.03822384985119,1650.0,1650.0,0.0,0.0,15473.306296157385,-1633109.708786062,-16981.348912029538,91822.7740554612,67388.02756627301,975798.6572473366,33984181496.039955,24003779421.39968,115149321.34023136
0.9105058365758755,1209.5719844357977,1267.2030212863356,795.4039826047151,481.5175097276265,0.0,0.0,16490.73856241602,-1635615.245570939,-21881.569521574384,91955.22338330338,66023.1694324704,978790.717367329,34017019946.368725,24012633151.568542,114271811.20672691
0.914396887159533,1650.0,1650.0,0.0,0.0,0.0,0.0,17494.81496105127,-1638243.045295634,-23331.291115343385,91666.2579921941,64799.41220047303,979989.2773355249,34033841802.23795,24016421632.26676,102946902.09303872
0.9182879377431906,1390.0938429846644,1334.0993362325476,127.7500572213321,179.71618219272148,0.0,0.0,17933.34173577788,-1638970.2857050141,-21833.03831924988,90969.07717808323,64114.33344223634,978786.976292293,34025025727.56377,24012167905.360672,84253538.17319211
0.9221789883268483,211.94323643854432,141.04371709773406,1247.866788738842,1338.1277180132754,0.0,0.0,16963.29225398801,-1636244.2127855488,-18186.403445636854,90015.61354722086,64156.904916611675,975506.8489460183,33994419114.39677,24002028792.99596,64062360.65952547
0.9260700389105059,0.0,0.0,1650.0,1650.0,0.0,0.0,13539.79760681047,-1629709.8817746302,-13117.37763908859,89052.61319392253,64855.560145480915,971286.6162880564,33957089635.497066,23991937477.563427,48984967.55275267
0.9299610894941635,107.98580910963608,122.91599908445869,1650.0,1536.752117189288,0.0,0.0,6646.00346296746,-1620480.4614326216,-7123.0147572208725,88341.53284155889,65915.88426063766,967635.1623157738,33931294246.399708,23987992969.049103,44005237.40430281
0.933852140077821,1071.3733119707026,1141.8951705195698,1121.3504234378577,630.9956511787594,0.0,0.0,-4361.398928060837,-1610864.5804024197,-541.4291233370658,88071.4489988878,66932.95787696246,965838.6241895406,33929005225.57048,23992758494.759953,50699420.21822636
0.9377431906614786,1650.0,1650.0,0.0,0.0,0.0,0.0,-19377.587564244262,-1603662.2067305613,6252.752283722617,88297.5449794027,67538.16441186336,966454.0797429804,33949946226.26893,24003659168.84838,66720226.777187005
0.9416342412451362,1490.0228885328452,1444.0993362325476,87.03822384985119,139.43236438544295,0.0,0.0,-37276.806979575,-1601286.6842348531,12679.732283089188,88928.27190580506,67529.10674861078,969093.3702092177,33982082702.037464,24014419671.85593,86719412.5191382
0.9455252918287937,365.4749370565347,285.68780041199363,1267.2030212863356,1246.6582742046235,0.0,0.0,-55875.140269110794,-1605018.4645095563,17940.84907278657,89765.5323902783,66937.9210808403,972582.862280059,34008046829.81572,24018698689.038563,104319108.7509165
0.9494163424124513,0.0,0.0,1650.0,1650.0,0.0,0.0,-72212.7050188574,-1614635.9121855209,21202.034509717087,90581.57777117034,66015.28604404518,975434.2922580796,34013947568.036884,24013800483.96865,114346339.82336128
0.953307392996109,850.1647974364843,992.4170290684367,1334.0993362325476,959.7619592584116,0.0,0.0,-83144.4458902241,-1628528.4924902753,21909.473942468332,91201.98854465316,65137.04598466183,976437.9346761019,33995990971.451538,24002308377.079628,114477586.12733898
0.9571984435797666,1650.0,1650.0,141.04371709773406,0.0,0.0,0.0,-86117.33199912951,-1644231.1283535403,20093.377722638746,91561.93157935911,64667.2440973655,975141.6905552665,33961738356.003857,23990695672.4023,105720135.03282534
0.9610894941634242,1495.6626230258637,1484.383154039826,0.0,111.23369192034795,0.0,0.0,-79923.37484805274,-1659183.8129009246,16501.405955346752,91713.85400608719,64826.17067950426,972026.7881283599,33925774142.11398,23985712946.83336,91655215.2691597
0.9649805447470817,374.74021515220875,377.1572442206454,1141.8951705195698,1253.103685053788,0.0,0.0,-65189.52975515849,-1671460.4070261794,12462.618518904543,91784.60685861656,65609.73377063096,968312.9719914186,33902395774.481228,23990616377.96262,76864859.39536275
0.9688715953307393,0.0,0.0,1650.0,1650.0,0.0,0.0,-44416.700250901005,-1680238.9380273777,9493.041521782883,91900.79838499063,66788.03077293762,965473.7752283388,33899199382.0235,24003369998.79089,65248180.071904145
0.9727626459143969,546.3744563973449,664.0535591668574,1438.0567635614557,1274.4541084916455,0.0,0.0,-21502.813500009615,-1685885.826059108,8769.636305078118,92114.5719240953,67983.04467094722,964656.4742585707,33914590008.314533,24017805110.539867,58893816.647123374
0.9766536964980544,1648.7663080796522,1650.0,279.242389562829,66.89631494621197,0.0,0.0,-843.8673722910949,-1689659.2969426943,10671.076939340204,92362.46406151188,68797.77606868623,966236.5428562086,33939929080.291462,24027031192.156727,57853842.643301
0.980544747081712,1529.903868162051,1512.5818265049209,0.0,34.669260700389145,0.0,0.0,13750.377597394288,-1693156.8595507976,14577.988245281806,92477.11111548805,68951.49546255078,969679.8549456479,33964606827.218506,24027139316.899742,60727308.51377698
0.9844357976653697,0.0,0.0,1650.0,1650.0,0.0,0.0,20014.03920734131,-1697701.1889020174,19039.278837395894,92250.25821939121,68374.19773982662,973761.4228644301,33981085573.2895,24019126869.52174,65620105.34477187
0.9883268482490273,1513.7903410391395,1550.0709544518197,377.1572442206454,198.24673838406952,0.0,0.0,17767.243280897168,-1703861.1765277996,22274.653657340306,91524.15105676891,67228.12043182866,977047.7898810221,33987425947.057774,24008038173.227917,70955217.04712974
0.9922178988326849,1640.3067063401236,1610.0938429846647,0.0,0.0,0.0,0.0,8873.671556518912,-1711246.5292892011,22847.89753717439,90275.48728618059,65849.96799471391,978448.0987911766,33986523544.301453,23999921100.453835,75786323.41533747
0.9961089494163424,453.3188372625315,414.21835660334176,664.0535591668574,1149.9519340810255,0.0,0.0,-3375.4744211719067,-1718619.5785287167,20264.84860147727,88656.99961150347,64635.10687530363,977616.315491708,33983155283.691505,23998413040.705715,79603352.00204796
1.0,0.0,0.0,1650.0,1650.0,0.0,0.0,-15259.02189672489,-1724269.4743267263,15259.021896667964,86976.42481116959,63904.783703364636,975051.4991989014,33980908430.609627,24002907835.507767,81921187.15192191
1.0038910505836576,222.4422064545663,232.9159990844587,1513.7903410391395,1483.980315861753,0.0,0.0,-23692.560557645455,-1726521.1901995426,9628.381370105077,85615.68628075178,63802.57618314815,971866.770377667,33980717345.30563,24009271300.04462,82047720.5829172
1.0077821011673151,1395.7335774776839,1412.249942778668,369.50331883726255,338.0819409475853,0.0,0.0,-27034.722129339672,-1724222.7801101173,5645.6238165091145,84915.8582511053,64255.23715886558,969329.8370273138,33981448184.2724,24012566800.992996,79281933.27330734
1.0116731517509727,1650.0,1650.0,0.0,0.0,0.0,0.0,-25395.696056510536,-1717072.2204438916,5224.879450626499,85067.19954198103,65009.953130159294,968365.3524240304,33981637496.81306,24010109036.5967,73483627.43997748
1.0155642023346303,579.8352025635156,555.6649118791486,377.5600823987182,994.0283817807278,0.0,0.0,-20380.776690591596,-1705699.7455005897,9130.423509171844,86042.94129696622,65733.08862396605,969217.9406890855,33980923105.366734,24003034956.869915,65664253.46973266
1.0194552529182879,360.64087891966125,370.7118333714809,992.4170290684367,1242.6298924238954,0.0,0.0,-14390.171212384814,-1691494.4282513605,16517.531935988634,87600.70508727219,66134.20870168862,971403.0020375261,33980165712.868168,23995511776.80219,58149824.97197495
1.0233463035019454,319.1233691920347,351.77843900206,1484.383154039826,1396.9420920119019,0.0,0.0,-9737.321946276628,-1676234.3755135415,24996.271051948504,89351.88963293395,66070.91529225849,973951.5371456074,33980340878.321365,23992121882.75014,54037541.165407814
1.027237354085603,0.0,0.0,1578.6724650949875,1650.0,0.0,0.0,-7893.402686354488,-1661630.9206513905,31237.452069046438,90875.80510595812,65597.49073009976,975835.6492277808,33981213001.375507,23995030656.63067,56035072.88862576
1.0311284046692606,129.76424811169602,177.29915312428477,1566.184481574731,1492.037079423209,0.0,0.0,-9102.223999568372,-1648917.5201917428,31954.466025866706,91840.36061664057,64940.684460430886,976391.9043357619,33980961613.31565,24002638983.08852,65147159.671927854
1.0350194552529184,1261.1604486152435,1340.9475852597848,336.87342641336693,368.69764248111693,0.0,0.0,-12463.836114905303,-1638600.0754876714,24959.57693103306,92089.98184617747,64411.93184102326,975567.603641872,33977230346.26733,24010511360.322403,79849542.88064635
1.038910505836576,1650.0,1650.0,0.0,0.0,0.0,0.0,-16412.309270047284,-1630440.7926124847,9956.120823775645,91674.15571336779,64287.73796909801,973895.1253528317,33969000904.839966,24014007464.074608,96247635.56735557
1.0428015564202335,725.2849622339207,637.0382238498511,420.26092927443347,825.9945067521172,0.0,0.0,-19377.460910073474,-1623682.5845904783,-11196.947598701126,90811.45684284197,64701.121597907695,972216.9709125871,33957993933.27141,24011039493.448776,109298636.34430987
1.046692607003891,0.0,0.0,1516.207370107576,1650.0,0.0,0.0,-20369.99004484343,-1617450.5722192272,-34848.86987151791,89805.96722674654,65583.13354883055,971289.2408328435,33948465154.553436,24003316491.701176,114670690.9231821
1.0505836575875487,139.83520256351574,139.02952620737017,1645.140764476997,1484.7859922178986,0.0,0.0,-19279.436727720164,-1611209.4191151073,-56453.268038064394,88947.66347978727,66676.02269961458,971440.1169389598,33945233662.130196,23995343803.38823,110469065.82012782
1.0544747081712063,1241.8242160677498,1247.0611123826964,492.7969787136645,383.60265506981006,0.0,0.0,-16801.15503919027,-1605127.3355327835,-71735.0124227525,88430.77675127993,67614.7503771399,972432.7478215966,33950952299.52044,23991775888.17706,98059477.90216176
1.0583657587548638,1650.0,1650.0,0.0,0.0,0.0,0.0,-14060.076286385643,-1600211.6101755605,-77784.87239536233,88314.32370410419,68049.85144572242,973591.0204079828,33964249063.365597,23994687251.082737,81584005.9660945
1.0622568093385214,1120.9475852597848,959.7619592584116,179.71618219272148,351.77843900206,0.0,0.0,-12115.470985790009,-1598138.451975502,-73766.65586967573,88531.5400571201,67770.20163766001,974131.091532367,33979994233.09149,24002365022.83792,66337942.29540983
1.066147859922179,0.0,0.0,1337.7248798352025,1550.0709544518197,0.0,0.0,-11567.573277178195,-1600790.5913520574,-61045.96202468351,88936.96793227977,66783.9182664384,973550.5827006225,33991751129.9876,24010323666.703533,56691712.50427188
1.0700389105058365,87.03822384985119,111.23369192034795,1650.0,1610.0938429846647,0.0,0.0,-12431.61492003925,-1609615.7131541816,-42727.93975645804,89368.25747558018,65329.40036610483,971899.9446414798,33995145790.04606,24013935428.690697,54455139.974156395
1.0739299610894941,1266.800183108263,1253.103685053788,630.9956511787594,414.21835660334176,0.0,0.0,-14322.014896552255,-1624996.1009470068,-22765.237844928073,89698.17060010135,63811.65325921642,969808.8635362041,33990251895.270477,24011128622.71848,58385634.284612425
1.0778210116731517,0.0,13.721675440604258,1650.0,1650.0,0.0,0.0,-16850.25614022827,-1645845.3376516805,-4912.90135803521,89860.35957997403,62683.71449841713,968244.9252736674,33981559011.888107,24003577464.954704,65023956.57452685
1.0817120622568093,1141.8951705195698,1209.5719844357977,959.7619592584116,552.0393682764935,0.0,0.0,-20041.60672449872,-1669604.5178067018,8167.640414659295,89845.95411058581,62310.97581591904,968098.4168425781,33975443426.737823,23995700407.02269,70440872.3914621
1.0856031128404668,1650.0,1650.0,0.0,0.0,0.0,0.0,-24559.069615797584,-1692702.159031222,15419.457168017983,89680.7119380055,62861.60296711142,969766.68100579,33976519708.028965,23992068463.174774,72074420.24543299
1.0894941634241244,1444.5021744106202,1390.4966811627376,111.23369192034795,135.0011444266422,0.0,0.0,-31595.952530375915,-1711396.1985999928,17410.07707281838,89399.15574492187,64257.47542014186,972919.265768119,33984952703.545414,23994747104.58282,69816619.00716135
1.093385214007782,283.6736095216297,211.94323643854432,1253.103685053788,1255.9235523002976,0.0,0.0,-42433.570942039034,-1722777.965634421,15904.269042364145,89030.39610052994,66200.19688641517,976556.1449522792,33996312174.051636,24002120123.300358,65875607.35159916
1.0972762645914398,0.0,0.0,1650.0,1650.0,0.0,0.0,-57805.076106336266,-1725635.7809805635,13155.818829208732,88601.704246634,68262.46004585849,979352.5049455093,34004112308.317642,24009865650.10025,63518763.7510078
1.1011673151750974,1004.0993362325474,1071.7761501487755,1272.0370794232088,795.4039826047151,0.0,0.0,-77302.9036329279,-1720885.849604375,11146.561316013838,88154.83092384934,70014.4006161339,980163.3094025686,34003616713.10894,24013494417.7811,65322472.38557861
1.105058365758755,1650.0,1650.0,73.74456397344932,0.0,0.0,0.0,-99076.2138033811,-1711388.570728848,10991.505075985768,87761.98626092535,71144.22351055998,978489.0435424545,33994718659.263702,24010957010.336113,71775326.5969606
1.1089494163424125,141.04371709773406,73.74456397344932,1246.6582742046235,1411.8471046005952,0.0,0.0,-119979.34801411154,-1701153.0252056161,12659.420193952574,87527.23325019696,71535.4985185928,974711.712526034,33982194834.59356,24003803094.173973,80906728.58749668
1.11284046692607,1333.696498054475,1272.0370794232088,139.43236438544295,233.31883726253145,0.0,0.0,-136181.85724866515,-1694135.5976700522,15056.180502927733,87565.51179590444,71278.79834358898,969996.2671055935,33973119243.60586,23996235827.722904,89128907.74297312
1.1167315175097277,1650.0,1650.0,0.0,0.0,0.0,0.0,-144088.88306037764,-1692992.0442238275,16416.05773283692,87962.76705831292,70617.51535087514,965883.9141074118,33972864566.66886,23992637562.665592,92913472.85419674
1.1206225680933852,1485.994506752117,1488.8143739986265,13.721675440604258,127.7500572213321,0.0,0.0,-141305.89217630937,-1698187.764693473,14871.26291816599,88731.55716374062,69849.30501331986,963727.8795363441,33981961725.244823,23995025592.44244,90532604.25381461
1.1245136186770428,373.53170061799034,367.89196612497136,1209.1691462577248,1247.866788738842,0.0,0.0,-127355.14498403638,-1707782.7713553747,9037.266166456177,89781.85256067904,69218.53343593361,964188.7003484075,33995635261.181602,24001918518.182743,83054074.32592493
1.1284046692607004,0.0,0.0,1650.0,1650.0,0.0,0.0,-103922.0168341834,-1718004.7114094242,-1538.0848016375653,90923.55582507711,68836.87163234843,966987.0727878866,34006328612.826706,24009252377.182182,74103035.74878016
1.132295719844358,715.214007782101,828.4115358205539,1382.8427557793545,1121.3504234378577,0.0,0.0,-74552.0244646724,-1724466.1903624153,-16169.524777949136,91906.24617951777,68658.3895935636,971013.863136488,34007835003.007122,24012782570.40392,68445584.06081252
1.1361867704280155,1650.0,1650.0,204.6921492332342,0.0,0.0,0.0,-43884.41970497149,-1723656.4025602054,-33118.49651400566,92486.95258038613,68515.94677316303,974757.3644729602,33998729991.992157,24010549775.712048,69971106.2268274
1.140077821011673,1508.5534447241932,1496.0654612039368,0.0,87.03822384985119,0.0,0.0,-16640.165195496535,-1714222.2031558391,-49945.04387279314,92504.38458247077,68204.03639219924,976882.564162229,33983189909.72385,24003972240.78886,79927283.26241435
1.1439688715953307,371.1146715495537,375.9487296864271,1069.3591210803386,1267.2030212863356,0.0,0.0,3360.045745903167,-1697597.415655235,-64047.88308223379,91933.35928495963,67576.87063240078,976736.3044548108,33968754356.324535,23996951446.61781,96176321.69117986
1.1478599221789882,0.0,0.0,1650.0,1650.0,0.0,0.0,13901.496473990444,-1677736.0407446069,-73271.58901999412,90898.58505098836,66624.96788022615,974580.6698580356,33962305528.054195,23993549389.140957,113830000.2388722
1.1517509727626458,429.12336919203483,502.4650949874113,1469.4781414511328,1340.1419089036394,0.0,0.0,14658.105344740354,-1659995.721752082,-76440.9279209467,89640.87176627053,65500.75975611734,971464.0471670643,33966512588.433834,23995622505.11718,127054847.23736255
1.1556420233463034,1590.757610437171,1633.8612954909588,342.5131609063859,126.13870450904095,0.0,0.0,7035.7308471800925,-1649506.6225590853,-73690.17229678272,88446.07611298132,64481.40786807214,968782.8358609463,33978677190.507282,24001798665.449986,131349092.19464183
1.1595330739299612,1577.4639505607693,1536.752117189288,0.0,0.0,0.0,0.0,-6323.538118525233,-1649547.672997844,-66491.65924216736,87560.9696638659,63879.19002838531,967709.6507698845,33992513408.921238,24008369525.1272,125379449.50490528
1.1634241245136188,393.2707713435569,356.6124971389334,827.6058594644084,1217.653925383383,0.0,0.0,-22207.149754157996,-1660467.7439810317,-57350.52832019075,87125.19515030044,63928.954880432095,968716.9176363342,34001724536.276707,24011531070.05717,111617348.40858531
1.1673151750972763,0.0,0.0,1650.0,1650.0,0.0,0.0,-37491.109579046955,-1679521.5704273588,-49212.430968581975,87142.42849493718,64691.6176387476,971386.5632185879,34003267130.42331,24009617866.899853,95475890.44608735
1.171206225680934,1467.8667887388417,1486.3973449301898,373.9345387960632,256.683451590753,0.0,0.0,-49658.19214178204,-1701690.9369616406,-44711.39826045149,87499.01451333059,66008.98294068775,974582.0093338042,33998467267.20663,24004004325.69633,83242954.2960706
1.1750972762645915,179.31334401464866,232.11032272831312,1531.9180590524145,1488.8143739986265,0.0,0.0,-57108.96769498293,-1721230.7760145077,-45444.057954270174,88020.44419042233,67529.21786357356,976913.4432179687,33991489165.84526,23998165046.258625,79599680.44631538
1.178988326848249,0.0,0.0,1645.9464408331428,1650.0,0.0,0.0,-59263.22022063711,-1733431.8322234699,-51472.560536589895,88542.11025639807,68799.12136094533,977309.3700724029,33986247807.781124,23995501211.418327,85707757.93192638
1.1828793774319066,1338.1277180132754,1414.2641336690317,360.23804074158846,367.89196612497136,0.0,0.0,-56489.68638554983,-1736014.9660154595,-61218.76735316766,88966.29636931805,69396.57926421432,975464.0578463036,33983759007.032654,23997281003.537075,98655671.0795629
1.1867704280155642,1650.0,1650.0,0.0,0.0,0.0,0.0,-49914.08137074354,-1729697.1703632867,-71818.61237650424,89284.04684617568,69061.95229872635,971979.2749033292,33981603252.322807,24001963318.01378,112535398.3906685
1.1906614785992218,639.0524147402152,554.4563973449302,319.9290455481804,828.4115358205539,0.0,0.0,-41148.30545281313,-1717755.2149740544,-79878.37620954578,89555.66878563326,67785.78454029337,968140.4877373662,33975841972.653122,24006320777.766476,120771569.23734982
1.1945525291828794,0.0,0.0,1525.8754863813226,1650.0,0.0,0.0,-31973.264476474647,-1704760.5801470126,-82448.97533543964,89860.9749600738,65822.9742067807,965413.9704455566,33964174655.089375,24007662025.176205,118801706.51719385
1.198443579766537,138.62668802929727,135.0011444266422,1617.344930189975,1496.0654612039368,0.0,0.0,-24006.55261533806,-1694946.085023606,-77950.4666372671,90242.89151386067,63626.53046240402,964863.6749948675,33948301252.635685,24005750407.61416,106028388.19824007
1.2023346303501945,1650.0,1650.0,0.0,0.0,0.0,0.0,-18396.9748625246,-1690787.3476242768,-66768.86193883755,90670.58080325353,61719.84114374217,966720.1898876114,33933868066.856697,24003163247.060364,86221839.77112855
1.206225680933852,505.6878004119935,478.2948043030442,537.5120164797437,1073.7903410391395,0.0,0.0,-15602.03953493725,-1692295.6442187573,-51322.60777439823,91039.67924537275,60546.48804158098,970275.0362882355,33927802293.452076,24003764841.429928,66159007.540902026
1.2101167315175096,279.6452277409018,291.7303730830854,1498.0796520943006,1432.0141908903638,0.0,0.0,-15307.631634722764,-1697252.9453650217,-35541.12241885835,91211.08677897534,60344.306162469235,974145.1749192476,33934444619.102085,24010135442.470882,53005512.29989873
1.2140077821011672,1247.0611123826964,1256.3263904783703,411.80132753490494,375.9487296864271,0.0,0.0,-16529.258407556004,-1702270.808504455,-23872.133171609108,91072.62678933915,61082.889932383856,976805.8590914508,33952710766.078243,24021505832.312557,51482209.31723846
1.2178988326848248,1650.0,1650.0,0.0,0.0,0.0,0.0,-17890.19842019449,-1704250.1664245347,-20084.31642320409,90596.99652556534,62483.44002592266,977183.2017803557,33976035261.39994,24033545718.743526,61973869.1200252
1.2217898832684826,959.3591210803388,795.4039826047151,233.31883726253145,502.4650949874113,0.0,0.0,-18015.6259628479,-1701671.9676497171,-26206.8989380649,89869.50317086442,64113.372538672054,975073.5191517094,33995314839.671307,24040324733.171494,80368300.29787171
1.2256809338521402,0.0,0.0,1411.8471046005952,1633.8612954909588,0.0,0.0,-15934.916149223509,-1695215.3843043784,-41919.79126557694,89070.46509505452,65524.2384059334,971224.3945469406,34003345933.812714,24037483496.835117,99702075.10685979
1.2295719844357977,111.23369192034795,127.7500572213321,1650.0,1536.752117189288,0.0,0.0,-11368.835242478788,-1687458.3479523638,-64580.52600856147,88415.52515983993,66388.13688928822,967045.5727373046,33998343002.28549,24024865780.783306,112931490.17487136
1.2334630350194553,1252.7008468757151,1247.866788738842,552.0393682764935,356.6124971389334,0.0,0.0,-4806.0510242946375,-1681769.9161388976,-89885.05427759382,88075.13315904314,66589.32071126954,964063.4434597268,33984581453.22572,24007055619.98637,115672470.13791822
1.2373540856031129,1650.0,1650.0,0.0,0.0,0.0,0.0,2660.783483975423,-1680822.6510273274,-112967.80495725971,88104.66095552406,66243.41330585071,963333.3332760395,33969798150.200695,23991366653.63343,107773286.52878742
1.2412451361867705,1271.6342412451363,1121.3504234378577,135.0011444266422,289.7161821927214,0.0,0.0,9687.138319577392,-1685313.8352619365,-129614.61083811332,88414.4829734058,65641.12424316887,965039.4765609395,33960810423.552807,23984246617.021282,93096141.30487481
1.245136186770428,73.74456397344932,0.0,1255.9235523002976,1482.7718013275348,0.0,0.0,15097.398246997162,-1693421.9174351543,-137233.94722810696,88795.18493205027,65138.19322929755,968437.5019497537,33959833353.55028,23987990193.15948,77664178.83786514
1.2490272373540856,13.721675440604258,87.03822384985119,1650.0,1650.0,0.0,0.0,18229.58544023625,-1701256.9058620161,-135317.11802323107,88992.01209143878,65030.15676958078,972158.6343418495,33963586189.35174,23999554024.988647,67031998.65285373
1.2529182879377432,1209.1691462577248,1266.800183108263,795.4039826047151,481.92034790569926,0.0,0.0,19087.923732229683,-1704186.691360671,-125288.0396231294,88802.83391202035,65453.9437745468,974752.5341274788,33965684922.775864,24012164464.20844,64046603.00004394
1.2568093385214008,1650.0,1650.0,0.0,0.0,0.0,0.0,18260.14936200426,-1698575.8335465856,-109840.5706685313,88163.19045719792,66347.53193173127,975253.0771288795,33960918256.959602,24018895188.31514,67947298.0942991
1.2607003891050583,1382.8427557793545,1325.639734493019,127.7500572213321,188.17578393224994,0.0,0.0,16645.659125241637,-1683291.9506624418,-92019.00816521278,87184.97472905407,67478.0960665809,973544.6996351796,33948886514.060448,24016304266.596,75115468.46557912
1.264591439688716,74.55024032959489,120.09613183794919,1650.0,1594.3831540398257,0.0,0.0,15110.28020605311,-1660392.2632322193,-74362.48645422545,86131.35116896045,68525.73840908242,970388.155792328,33934802676.324863,24006169909.905964,81028998.30081858
1.2684824902723735,1142.7008468757153,1204.3350881208512,1121.3504234378577,568.9585717555505,0.0,0.0,14205.20435034498,-1634685.777315984,-58386.33686730106,85333.86712868721,69192.09959229603,967100.7400663607,33926853455.580566,23994391323.73047,82452722.10419624
1.272373540856031,1650.0,1650.0,0.0,0.0,0.0,0.0,14052.568287418822,-1612276.010461224,-44532.71476336277,85079.64803087243,69296.73234642502,965022.727199632,33931504355.56451,23987666800.16342,78841376.0524798
1.2762645914396886,1498.4824902723735,1456.9901579308764,86.63538567177841,126.54154268711373,0.0,0.0,14423.344364702618,-1598574.9282291513,-32541.651518216848,85508.67826359974,68830.65220376331,964984.7325213755,33949380045.74825,23989774819.901596,72354933.97227858
1.2801556420233462,350.56992446784164,281.256580453193,1266.800183108263,1251.089494163424,0.0,0.0,14947.841476850668,-1596494.641697453,-22038.810488405634,86558.63751888383,67952.89971982967,966987.4720290997,33974136033.004078,23999495706.678696,66571149.05789311
1.284046692607004,0.0,0.0,1650.0,1650.0,0.0,0.0,15342.668994952095,-1605482.3201514003,-13064.098073311276,87978.25302755926,66935.87142559874,970218.1371315988,33995151150.66363,24011304988.31686,64591900.18130906
1.2879377431906616,879.1691462577248,992.4170290684367,1324.0283817807278,959.7619592584116,0.0,0.0,15535.915504099497,-1621772.4180339046,-6301.541965221459,89405.6146766045,66081.37477931101,973391.8646574805,34002775314.985935,24018446512.906673,67490149.41223131
1.2918287937743191,209.12336919203483,139.83520256351574,1247.866788738842,1339.3362325474936,0.0,0.0,15626.29017652933,-1639789.7017029685,-2900.7711848137437,90484.4400398994,65636.45846764947,975277.1486766678,33993418610.94888,24016693170.78936,73829061.86411814
1.2957198443579767,1650.0,1650.0,133.79262989242386,0.0,0.0,0.0,15698.451357417303,-1654207.002622601,-3954.1615883701456,90977.5944625076,65734.41649650868,975192.1638559162,33971771334.597317,24006737451.76127,80429336.87887995
1.2996108949416343,1494.8569466697184,1484.383154039826,0.0,111.23369192034795,0.0,0.0,15596.210427739989,-1661904.4109505357,-9844.521345144674,90838.35204611083,66374.42525511103,973273.0058973399,33948908974.87485,23993914718.05712,83950137.0323965
1.3035019455252919,373.12886243991755,377.1572442206454,1139.478141451133,1253.103685053788,0.0,0.0,14789.414900052887,-1663093.5331770184,-19747.205100712203,90215.44483798851,67438.40221369456,970408.4018529513,33937171980.418037,23985420259.745483,82482164.17665692
1.3073929961089494,0.0,0.0,1650.0,1650.0,0.0,0.0,12439.361479738925,-1661163.717900529,-31528.868539220177,89392.03416537865,68731.83651977104,967870.3718334585,33944370089.013966,23986531664.44615,76393495.17785089
1.311284046692607,599.9771114671548,664.0535591668574,1417.8896772716867,1277.676813916228,0.0,0.0,7680.621698313774,-1661275.615134925,-42145.133919014625,88682.3550697624,70030.69623738383,966792.2607930512,33970170910.899555,23997857640.912605,68075344.3848229
1.3151750972762646,365.4749370565347,369.10048065918977,991.2085145342184,1281.302357518883,0.0,0.0,29.940185481215483,-1668201.1717063207,-48451.16193448406,88324.21274421572,71119.85759394159,967705.7558344876,34006361309.77806,24015043742.44462,60784310.73349509
1.3190661478599222,0.0,0.0,1650.0,1650.0,0.0,0.0,-10246.308770278274,-1684211.037260615,-48172.14239283591,88405.5885297677,71817.1502848497,970323.2993469196,34040681191.774727,24031021431.63916,57190833.40474532
1.3229571984435797,344.124513618677,388.0338750286107,1486.3973449301898,1373.1746395056077,0.0,0.0,-21985.70548327902,-1707821.9810272756,-40698.89932327245,88849.64159341916,71986.2858741083,973652.4188711508,34062195183.084957,24039538506.940315,58327233.085959025
1.3268482490272373,1537.154955367361,1568.1986724650951,374.33737697413596,177.29915312428477,0.0,0.0,-33313.94600012033,-1733924.6353059586,-27411.442429662253,89459.93372931109,71546.97808788547,976394.4891202999,34065574660.662796,24038085504.262737,63367844.32668357
1.3307392996108949,1625.4016937514307,1597.6058594644082,0.0,0.0,0.0,0.0,-42140.07817496913,-1755314.9227726173,-11381.673157018224,90005.39145416248,70489.08417096378,977466.2931833843,34052441024.319042,24028744556.672245,70228187.7038062
1.3346303501945525,439.1943236438544,409.7871366445411,700.3089951934081,1144.715037766079,0.0,0.0,-46806.07131836721,-1765129.3290157777,3484.029926499843,90310.72586607958,68890.58145606163,976434.132087878,34029556746.011314,24016668405.321594,76581337.99402438
1.33852140077821,0.0,0.0,1650.0,1650.0,0.0,0.0,-46648.15796213186,-1759328.2503544353,13604.325229846543,90317.69803127184,66930.58695607254,973686.2754308257,34005210262.758556,24007171797.93728,80750249.50658937
1.3424124513618676,1522.249942778668,1514.193179217212,0.0,60.048065918974544,0.0,0.0,-42236.148932097894,-1738320.0569048214,16812.420956568818,90095.44719655898,64883.5323037882,970275.3373557272,33985810396.424522,24003086920.165485,82091050.16334279
1.3463035019455254,1650.0,1650.0,257.48912794689863,58.4367132066834,0.0,0.0,-35166.64126327403,-1707099.5073833778,13015.522584163824,89798.78179503967,63082.85270356974,967494.9198380457,33974230833.432163,24003764534.835743,80819355.57160312
1.350194552529183,232.5131609063859,290.1190203707942,1511.3733119707026,1443.696498054475,0.0,0.0,-27460.101238463652,-1673793.8002499836,4201.119452538606,89593.69392629346,61852.696105443254,966361.2351183202,33970226940.846725,24006093429.8477,77545793.21549211
1.3540856031128405,1412.6527809567406,1484.383154039826,369.50331883726255,285.68780041199363,0.0,0.0,-20782.359594809674,-1647083.3617529215,-6216.668971355733,89581.55692430984,61420.84760462587,967207.9017081005,33972062992.011,24006763420.555664,72902442.11273685
1.3579766536964981,1650.0,1650.0,0.0,0.0,0.0,0.0,-15805.123823909267,-1633383.3617337537,-14496.136928724758,89753.00571538425,61839.10667459113,969556.0143550568,33978013023.103996,24004360073.592674,67507403.0201226
1.3618677042801557,552.0393682764935,481.5175097276265,437.1801327534905,992.4170290684367,0.0,0.0,-11990.137990816012,-1634778.7858598186,-17748.485691075795,89989.88552602599,62942.22337594568,972310.7647279325,33986820293.2447,24000082827.817936,62227175.022763476
1.3657587548638133,0.0,0.0,1605.259784847791,1650.0,0.0,0.0,-7927.897377053576,-1648454.5891310698,-14810.648402253068,90114.08825772352,64369.23568832674,974204.9926773113,33997144468.566402,23996761716.711815,58441572.84307038
1.3696498054474708,135.0011444266422,179.71618219272148,1548.0567635614555,1483.980315861753,0.0,0.0,-2136.7138289957693,-1667837.2822258445,-6529.288242964306,89963.36447939594,65652.37038833927,974311.5352725196,34006824056.70145,23996871424.281796,57959228.90947331
1.3735408560311284,1255.9235523002976,1338.1277180132754,351.77843900206,377.1572442206454,0.0,0.0,5981.348668998519,-1685051.5171930287,4621.827294520817,89463.60398858617,66354.28837008675,972419.3476768334,34012905116.082104,24000808021.861202,62422116.48091309
1.377431906614786,1650.0,1650.0,0.0,0.0,0.0,0.0,15435.650153650115,-1693816.5823375063,15441.225164185877,88668.6132186928,66213.31659335582,969123.4967297969,34012774953.479973,24006492970.765892,72375804.97716881
1.3813229571984436,795.4039826047151,631.3984893568322,289.7161821927214,664.0535591668574,0.0,0.0,23546.913562479906,-1691739.6502857592,23093.454880854057,87751.28406048495,65247.27915584719,965593.8481313853,34005825351.133667,24010544709.079773,86473078.19991149
1.3852140077821011,0.0,0.0,1482.7718013275348,1650.0,0.0,0.0,26598.47387723945,-1681170.8793152145,26016.698216789395,86949.05424891884,63774.784972338224,963115.4789216145,33994495857.77407,24010310766.558212,101338205.4257541
1.3891050583657587,127.7500572213321,139.43236438544295,1650.0,1512.5818265049209,0.0,0.0,21094.3628461869,-1668299.2873887385,24339.202154587532,86484.21749886467,62337.33500122364,962584.3246195151,33983745466.843655,24005540363.940804,112379718.3083392
1.3929961089494163,1247.463950560769,1246.6582742046235,481.5175097276265,370.7118333714809,0.0,0.0,5213.830256762073,-1660804.4767683486,19679.96417357147,86489.11861729254,61538.950470273856,964158.4520468708,33978903585.46772,23998689933.55581,115394335.13467245
1.3968871595330739,1650.0,1650.0,0.0,0.0,0.0,0.0,-20080.317094324317,-1664907.7384602702,14429.663442934785,86964.02545848147,61850.645624030425,967202.3482601233,33982917137.571167,23993655363.332787,108367976.30464923
1.4007782101167314,1120.9475852597848,959.7619592584116,179.71618219272148,351.77843900206,0.0,0.0,-50755.89399314161,-1682893.5594779085,10790.053028951623,87782.57441143194,63443.40492936401,970544.3371683552,33994551459.609203,23993640025.36217,92680690.37987857
1.404669260700389,0.0,0.0,1338.1277180132754,1550.0709544518197,0.0,0.0,-80467.59004048377,-1712013.6587201029,9929.970288063718,88741.31766429062,66108.21663307256,972942.7432110568,34008716323.958195,23999365344.06858,73086440.67155957
1.4085603112840468,87.03822384985119,111.23369192034795,1650.0,1610.0938429846647,0.0,0.0,-102210.49477246881,-1745194.9407976323,11566.818074685176,89633.26364707176,69295.46076794284,973574.3237340914,34018932029.883736,24008630491.25862,56318978.19744624
1.4124513618677044,1266.800183108263,1253.103685053788,631.3984893568322,414.21835660334176,0.0,0.0,-110384.66519714237,-1773325.8497324432,14122.969985399614,90316.79607597507,72266.69605839333,972351.1458284198,34020676558.923203,24017456404.49637,48766987.01756172
1.416342412451362,1650.0,1650.0,0.0,0.0,0.0,0.0,-102596.49407284563,-1788325.946015251,15395.034488682988,90754.10752690394,74313.05100346834,969941.8327000549,34013736918.70038,24022158330.244846,54097190.34948003
1.4202334630350195,1329.6681162737466,1272.0370794232088,139.43236438544295,233.31883726253145,0.0,0.0,-80568.13998262801,-1785917.4305549553,13486.11588237848,91005.98886102646,74969.9609200039,967491.5820910279,34002151886.798138,24021190314.98232,71777648.07895316
1.424124513618677,135.80682078278778,73.74456397344932,1246.6582742046235,1411.8471046005952,0.0,0.0,-49801.55574347121,-1767118.7103821323,7653.817155730353,91187.33176911672,74157.24634338713,966155.0393649144,33991676067.069523,24015768825.46261,97119874.2574274
1.4280155642023347,0.0,13.721675440604258,1650.0,1650.0,0.0,0.0,-18058.43836283821,-1737932.4468949628,-1246.1695711001003,91403.10576172001,72197.55889986023,966629.3975877804,33986169073.43535,24008998690.53525,122855229.7603505
1.4319066147859922,1148.7434195468072,1209.5719844357977,959.7619592584116,552.0393682764935,0.0,0.0,6874.511938584046,-1707340.2586096013,-10899.56539474185,91691.88097657786,69707.10765233071,968873.2877161632,33985044921.55384,24004068753.538864,141646160.48257703
1.4357976653696498,1650.0,1650.0,0.0,0.0,0.0,0.0,19413.206813213455,-1684312.4891227158,-18229.14925018398,92000.45007728682,67396.06262712204,972121.5464901306,33983420444.238125,24002573082.98219,148567761.61650312
1.4396887159533074,1433.2227054245823,1390.4966811627376,110.42801556420237,135.0011444266422,0.0,0.0,17673.39600387685,-1674880.3243886444,-20421.998049697413,92200.28116631198,65846.61372895965,975187.524571207,33975092395.76673,24003881943.379513,142629257.1122749
1.443579766536965,269.57427328908216,211.94323643854432,1253.9093614099336,1255.9235523002976,0.0,0.0,3768.0473681878734,-1680279.9317220883,-15942.883616049032,92139.53871882672,65343.30411002754,976930.7079235116,33956777427.709393,24005835318.917526,126813270.21850273
1.4474708171206225,0.0,0.0,1650.0,1650.0,0.0,0.0,-17146.007938782626,-1696782.4632201775,-5185.564445196601,91709.93739647094,65810.54002273284,976703.2528961304,33931153559.47514,24006256352.801334,106710708.4990184
1.45136186770428,1011.3504234378576,1071.7761501487755,1251.8951705195695,795.4039826047151,0.0,0.0,-38692.43013810141,-1717217.3769187066,9470.779415041721,90901.39499439516,66873.31707762084,974599.4992053969,33906724167.350346,24004335751.21414,88365634.78666075
1.4552529182879377,1650.0,1650.0,65.28496223392085,0.0,0.0,0.0,-55306.17391043539,-1733601.2778241574,24238.957846976133,89821.76059512138,68013.44783277984,971412.586126558,33894198109.673378,24001067095.757015,76202128.21809685
1.4591439688715953,1487.2030212863353,1488.8143739986265,16.944380865186528,127.7500572213321,0.0,0.0,-63770.18583325424,-1739914.1814461963,34967.79260120616,88672.12976566188,68760.947177531,968319.3050322606,33901057663.92499,23998519414.643436,71796787.31323858
1.4630350194552528,371.92034790569926,367.89196612497136,1206.7521171892881,1247.866788738842,0.0,0.0,-63778.717170454955,-1734047.6785517628,38335.29144684144,87685.31204669006,68850.52570809769,966421.3369992768,33927160501.042213,23998443016.375214,73856423.05832887
1.4669260700389104,0.0,0.0,1650.0,1650.0,0.0,0.0,-57436.91712291721,-1718281.6725434416,32827.25684156619,87049.34523125515,68289.49224821906,966325.685048542,33963880768.60638,24001093683.750328,79248598.59562927
1.4708171206225682,738.5786221103227,828.4115358205539,1365.520714122225,1120.9475852597848,0.0,0.0,-48009.907374327464,-1698197.5165931154,19207.42078496251,86844.0901604151,67319.07898603303,967928.4476886024,33997542633.56809,24005005996.259922,84532120.15160124
1.4747081712062258,1650.0,1650.0,188.98146028839548,0.0,0.0,0.0,-38495.856864946465,-1680498.2464525115,344.76349284861374,87014.561241428,66292.3265170313,970482.5998851928,34015634606.60392,24007853648.005974,87301790.06167372
1.4785992217898833,1506.539253833829,1497.6768139162282,0.0,86.63538567177841,0.0,0.0,-30617.82455734628,-1670575.5626087058,-19541.21940817917,87391.40318055436,65522.36320563909,972916.3530370715,34012733406.79048,24007866921.65253,86829055.96885239
1.482490272373541,371.1146715495537,374.33737697413596,1066.1364156557563,1266.800183108263,0.0,0.0,-24606.662323584547,-1670710.3141733345,-35988.66556843641,87751.77118362168,65163.563357763574,974269.8715323294,33993087829.80589,24004937327.30234,83850547.86711015
1.4863813229571985,0.0,0.0,1650.0,1650.0,0.0,0.0,-19778.4471786471,-1679513.6909237446,-45435.89954969692,87899.17231866268,65171.75688004752,974073.7704591012,33968456655.951313,24000728192.54438,79752724.3602034
1.490272373540856,460.9727626459144,529.0524147402151,1448.933394369421,1319.1691462577248,0.0,0.0,-15550.633531879459,-1692726.9249422757,-46088.71549806834,87733.95827616622,65355.2929556612,972519.7328921445,33952222674.31541,23997710785.753864,75646187.87520124
1.4941634241245136,1614.1222247653927,1643.126573586633,308.24673838406954,109.99999999999999,0.0,0.0,-12343.6973722947,-1704989.192638883,-38300.87428781556,87289.54860973964,65490.33197743581,970359.8583610371,33952740398.055504,23997695836.71645,71817798.74196458
1.4980544747081712,1546.8482490272374,1533.9322499427788,0.0,3.2478828107118716,0.0,0.0,-11865.53657739875,-1711847.976712669,-24405.68184638052,86721.74866893947,65446.827673196014,968581.5037321239,33969286471.832115,24000739565.61877,67810076.79256055
1.5019455252918288,357.82101167315176,360.23804074158846,865.0698100251774,1213.222705424582,0.0,0.0,-16557.199993932023,-1711242.553082106,-8087.506781436896,86255.14915855869,65267.23315074363,967993.8725330473,33992641715.48395,24005085691.575954,63028975.84778073
1.5058365758754864,0.0,0.0,1650.0,1650.0,0.0,0.0,-28374.95593025289,-1703943.1913973463,6509.620639152926,86105.53839093268,65159.9734282096,968895.8325873951,34009945043.493187,24008189195.423332,57494436.28966431
1.509727626459144,289.31334401464864,352.1812771801328,1496.0654612039368,1390.4966811627376,0.0,0.0,-47426.28175136617,-1692866.2387627203,15698.959516359138,86405.26798129179,65406.23483978636,970958.855513982,34011279030.477455,24008220361.50666,52263728.55854046
1.5136186770428015,1481.9661249713895,1549.6681162737468,373.12886243991755,211.94323643854432,0.0,0.0,-71112.52627361867,-1681630.6347763366,16984.72264413338,87156.95748646103,66216.85044676256,973369.8440914827,33994612065.531612,24005155217.66391,49219583.9391844
1.517509727626459,1650.0,1611.7051956969558,0.0,0.0,0.0,0.0,-94285.63863986368,-1672999.5573451011,9480.391918076966,88230.64420702714,67600.21841670637,975172.5399658252,33966646355.34268,24000797715.953384,50248487.87832383
1.5214007782101167,0.0,0.0,1650.0,1650.0,0.0,0.0,-110542.17516597649,-1667857.9266365266,-6026.825197647438,89404.35640470393,69301.80612022597,975666.1459802173,33939284785.803886,23997711357.49605,56177329.44897768
1.5252918287937742,179.71618219272148,233.31883726253145,1524.2641336690315,1488.8143739986265,0.0,0.0,-114299.95537212305,-1665118.872429061,-27323.428181967414,90433.51838464028,70850.052339234,974697.745373506,33923673361.405956,23997690295.51706,66014390.337375656
1.5291828793774318,1337.7248798352025,1412.249942778668,365.07209887846193,367.89196612497136,0.0,0.0,-102925.42411477555,-1662542.101124143,-51237.855270111526,91125.54796660603,71701.80475968138,972729.346303492,33924929844.405685,24000684033.735817,76950761.68186934
1.5330739299610896,481.5175097276265,417.03822384985125,589.9061570153352,1071.7761501487755,0.0,0.0,-78068.93761694794,-1658055.7538205395,-74223.45534980085,91395.28866787047,71438.99116797041,970652.4522333804,33940172947.656357,24004832038.467857,85244658.34631447
1.5369649805447472,1650.0,1650.0,0.0,0.0,0.0,0.0,-45588.79935150871,-1650962.1041686113,-92959.38933509283,91284.32857910322,69943.68839398089,969425.4355936002,33960646038.605743,24007610383.55766,87681227.57571277
1.5408560311284047,630.9956511787594,552.0393682764935,350.56992446784164,828.4115358205539,0.0,0.0,-13939.263604691054,-1642462.6656419458,-104890.92007658284,90939.83951346966,67481.68042336222,969680.3807961127,33976592516.112404,24007423929.91091,82981418.94379666
1.5447470817120623,0.0,0.0,1548.8624399176015,1650.0,0.0,0.0,8514.678054344105,-1635236.7694074167,-108645.78336552362,90561.81409577759,64655.074263252885,971458.0185410554,33982215355.93636,24004690641.10883,72493848.53398596
1.54863813229572,139.43236438544295,135.0011444266422,1610.4966811627373,1496.0654612039368,0.0,0.0,16339.135475036417,-1632225.9477849486,-104272.17807904647,90337.07564806171,62231.84470117127,974177.579324754,33978187230.199257,24001737025.0395,59786575.13297908
1.5525291828793775,1246.2554360265508,1255.9235523002976,414.21835660334176,375.9487296864271,0.0,0.0,8982.015366388341,-1635140.2771007498,-93252.17947943335,90381.36653173016,60906.664932588006,976854.1345172472,33970615267.325817,24001507308.115387,49247855.73155678
1.556420233463035,1650.0,1650.0,0.0,0.0,0.0,0.0,-8950.360649006192,-1643357.5035269212,-78262.49750417484,90706.77249583161,61075.18315599892,978477.3456914007,33967273794.018066,24005792113.638355,44280470.47418917
1.5603112840466926,959.3591210803388,795.4039826047151,233.31883726253145,502.4650949874113,0.0,0.0,-29290.231877665956,-1653759.3394395036,-62690.352611370414,91222.62624372821,62701.86551684542,978401.9402380688,33973269543.572765,24013994660.497097,45898969.21646562
1.5642023346303502,0.0,0.0,1411.8471046005952,1633.8612954909588,0.0,0.0,-43282.617080680706,-1661683.4180216251,-49964.863922034456,91767.22399384632,65329.65317963818,976596.6661081844,33988428555.93969,24023182766.920776,52386834.75171663
1.5680933852140078,111.23369192034795,127.7500572213321,1650.0,1536.752117189288,0.0,0.0,-44893.284538351756,-1662705.1206669277,-42821.65978759696,92158.74298590572,68229.37132672816,973655.683250887,34007617979.71554,24029465290.489513,60193100.799929924
1.5719844357976653,1253.103685053788,1247.866788738842,552.0393682764935,356.6124971389334,0.0,0.0,-33226.16227622104,-1654587.1815895573,-42660.37273188392,92249.22134193382,70636.67543286226,970570.8147864001,34023597766.5199,24029979814.90824,65661734.677542835
1.575875486381323,1650.0,1650.0,0.0,0.0,0.0,0.0,-13099.184630918984,-1638604.7731691333,-49160.80957324139,91966.19869405412,71993.09276344319,968356.776806618,34030730779.13335,24024412637.119587,66774952.44226445
1.5797665369649805,1266.800183108263,1120.9475852597848,135.0011444266422,289.7161821927214,0.0,0.0,6526.716678328569,-1619635.642507119,-60282.06031155677,91331.70696361581,72107.17539084418,967677.2773841714,34027598076.269024,24015206557.682808,64065249.90079605
1.583657587548638,69.31334401464868,0.0,1255.9235523002976,1482.7718013275348,0.0,0.0,15779.961245600434,-1604843.4020450634,-72683.10549365632,90455.63037908993,71182.12658133103,968616.2683118875,34017322987.32217,24006322744.62925,60240473.29995887
1.5875486381322956,20.972762645914372,87.03822384985119,1650.0,1650.0,0.0,0.0,7642.661734936004,-1601318.2997420663,-82493.6834708114,89507.56565577947,69705.99953904502,970678.2101174592,34005699344.243317,24001215999.560482,58695338.559177935
1.5914396887159532,1382.037079423209,1334.0993362325476,126.54154268711373,179.71618219272148,0.0,0.0,-19131.070506342392,-1613469.9028441538,-86261.83689453437,88676.24266940769,68250.86807586827,973009.1239884949,33998308229.301735,24001115423.38925,61646661.51954421
1.595330739299611,0.0,0.0,1650.0,1650.0,0.0,0.0,-59065.92465602871,-1641119.1537397483,-81842.62273156278,88127.36069899912,67259.27760473875,974743.7413992038,33998145500.818928,24004532796.389755,68842451.29715356
1.5992217898832686,1093.5294117647059,1142.2980086976424,1098.7663080796522,630.9956511787594,0.0,0.0,-101426.77521547987,-1679041.9370948412,-68993.80233293913,87969.49970466293,66897.9885013708,975337.5052259024,34004789758.73528,24008243670.33004,77535556.05183527
1.6031128404669261,1650.0,1650.0,0.0,0.0,0.0,0.0,-133663.31967658072,-1718231.1978600817,-49513.013426066456,88234.52602803957,67030.36554034025,974753.1251566934,34015198476.734577,24009178655.274815,83792602.63331234
1.6070038910505837,1477.5349050125888,1444.0993362325476,89.85809109636067,139.43236438544295,0.0,0.0,-145671.1354422211,-1748539.3261481482,-26869.736526065193,88874.88563584731,67311.24946243873,973434.0280611997,34025404460.86854,24006172308.195766,84527283.26548685
1.6108949416342413,338.0819409475853,285.68780041199363,1264.7859922178989,1246.6582742046235,0.0,0.0,-133369.15367931375,-1761856.1903941873,-5420.529275258393,89776.47252775721,67360.41658246225,972084.9354876232,34032117251.515404,24000611869.690617,79245903.88103947
1.6147859922178989,0.0,0.0,1650.0,1650.0,0.0,0.0,-100299.58156516319,-1754758.6299011519,10592.226884870985,90783.05475398469,66941.30317003478,971356.9409517084,34033560008.98178,23995647959.26274,70586936.17397112
1.6186770428015564,922.7008468757153,992.4170290684367,1305.875486381323,959.7619592584116,0.0,0.0,-56637.4882027659,-1729720.3713550353,18002.367870698687,91726.75042197625,66071.72196464107,971569.9807795538,34029483818.03958,23994424398.839672,63298319.01487709
1.622568093385214,1218.0567635614557,1267.2030212863356,795.4039826047151,481.5175097276265,0.0,0.0,-15912.68273521156,-1694448.3120616176,15403.487536395678,92458.66391935507,65022.36040393587,972586.1278459264,34020768770.276096,23998313522.971703,62063054.12129554
1.6264591439688716,198.24673838406952,141.04371709773406,1249.0753032730602,1338.1277180132754,0.0,0.0,9434.985421174315,-1659545.0682854636,3396.4229415702885,92874.29159548222,64205.069493274146,973881.8914747807,34009076165.659695,24006120739.949184,69179619.36708583
1.6303501945525292,1650.0,1650.0,0.0,0.0,0.0,0.0,12123.84614292899,-1635264.4910593997,-15635.82757084865,92929.48620732958,63997.81408950182,974784.2914330479,33996705407.97883,24014672497.038124,83225921.95782267
1.6342412451361867,1650.0,1650.0,119.69329365987642,0.0,0.0,0.0,-7689.581275395878,-1628426.8575624877,-38138.506503333236,92644.48893850762,64578.81429885001,974768.3546354512,33986432158.48478,24020440124.241177,99407294.8443841
1.6381322957198443,373.53170061799034,375.5458915083543,1136.6582742046235,1255.1178759441518,0.0,0.0,-42691.53067783542,-1640490.8488431887,-60202.35017886687,92095.64872086134,65838.73314166474,973690.0325588917,33980986973.363075,24021302011.89827,111504187.95434342
1.6420233463035019,1491.6342412451363,1485.5916685740442,0.0,109.19432364385443,0.0,0.0,-81111.22114258137,-1667370.4268467827,-78373.635541869,91396.70625526326,67408.32662343633,971857.285009032,33982092988.84944,24017503296.042118,114567850.01153381
1.6459143968871595,0.0,0.0,1650.0,1650.0,0.0,0.0,-110842.4537031651,-1700986.5094029044,-90267.78883100142,90673.54740241071,68792.3892580775,969910.5576743529,33989438002.91435,24011342478.44774,107135361.27070497
1.649805447470817,642.6779583428703,685.403982604715,1396.1364156557563,1226.1135271229114,0.0,0.0,-123502.03775333392,-1731969.4103245432,-94869.21860962252,90037.67917350975,69557.74784718851,968563.3428653718,34000254296.33735,24005821831.55432,91937030.34572713
1.6536964980544746,1650.0,1650.0,229.69329365987642,35.8777752346075,0.0,0.0,-116997.64891608675,-1752576.639876026,-92493.49762478244,89563.97358986376,69500.73800318404,968311.1043147021,34010034289.063187,24003045830.17035,74758766.42794104
1.6575875486381324,1515.4016937514307,1516.207370107576,0.0,68.50766765850312,0.0,0.0,-95751.22685493669,-1758874.024488299,-84474.57569170896,89277.30904601392,68727.04464896093,969229.1259868162,34014323428.475807,24003245386.53704,61972895.80714888
1.66147859922179,369.10048065918977,365.4749370565347,1005.7106889448386,1275.2597848477913,0.0,0.0,-68596.31602370899,-1751535.0777412625,-72696.91927401761,89150.78193053119,67611.14973501799,970942.2643750088,34010825057.86434,24004913895.73878,57858972.224826775
1.6653696498054475,0.0,0.0,1650.0,1650.0,0.0,0.0,-45213.29559762908,-1735118.9464853806,-59109.768055619796,89115.62156186564,66650.3126937881,972778.1318146754,34000684912.88025,24005902180.29843,62916019.3846147
1.6692607003891051,351.77843900206,502.4650949874113,1488.8143739986265,1334.0993362325476,0.0,0.0,-32473.865572849496,-1716202.4793304943,-45340.51591103329,89080.43122845492,66270.0545295577,974039.6524674639,33988100357.44171,24004797911.756397,73889064.17334858
1.6731517509727627,1549.2652780956741,1633.8612954909588,369.90615701533534,141.04371709773406,0.0,0.0,-32054.172949311247,-1701086.7225204012,-32478.831292850093,88955.47011269673,66657.73620472343,974284.3548702667,33978251323.758835,24001793955.623787,85431381.22431414
1.6770428015564203,1610.4966811627373,1536.752117189288,0.0,0.0,0.0,0.0,-40159.534004301255,-1693865.5104330366,-21048.94427049226,88676.75282203859,67690.08738556661,973495.9462216675,33974530333.100418,23998576850.80065,92582844.81701253
1.6809338521400778,415.42687113756006,356.6124971389334,758.3176928358893,1142.2980086976424,0.0,0.0,-49385.86630921361,-1695434.594198834,-11139.388678358277,88224.8659975559,68983.57360441782,972079.0099414671,33976575077.836037,23997337598.590775,92908297.45795628
1.6848249027237354,0.0,0.0,1650.0,1650.0,0.0,0.0,-51936.01127586455,-1703634.6947758407,-2626.948278225355,87634.43933309177,70047.86716948387,970681.0622934626,33980306574.15846,23999492595.87522,87350118.26091863
1.688715953307393,233.31883726253145,289.7161821927214,1506.1364156557565,1443.696498054475,0.0,0.0,-42915.74940297242,-1714316.8331771344,4582.008960312329,86991.89358849425,70481.68878274542,969917.273995168,33980136819.475925,24004837617.16119,79486006.66094999
1.6926070038910506,1411.8471046005952,1482.7718013275348,370.7118333714809,285.68780041199363,0.0,0.0,-22433.678767530066,-1722841.4932989993,10365.53889678153,86421.14781349033,70133.24381088946,970112.6667069762,33972271004.503754,24011586078.145954,73631088.91827695
1.6964980544747081,1650.0,1650.0,0.0,0.0,0.0,0.0,4288.588255524834,-1725459.6988549335,14310.061113607257,86059.17663392331,69161.26710532594,971168.4772145462,33957297809.186333,24017237713.796165,72729960.58540447
1.7003891050583657,552.0393682764935,481.92034790569926,502.4650949874113,992.4170290684367,0.0,0.0,28816.224051845875,-1720168.8256581111,15770.62410784074,86025.45462102674,67971.9658599104,972607.2871759944,33940507363.50187,24019778407.525887,77026812.57416816
1.7042801556420233,0.0,0.0,1633.8612954909588,1650.0,0.0,0.0,42665.448676995315,-1706903.9061138069,14059.612625846888,86391.12628146577,67056.41650535967,973777.1664340493,33929538420.564384,24018568027.66115,84085966.52075179
1.7081712062256809,135.0011444266422,179.71618219272148,1536.752117189288,1484.383154039826,0.0,0.0,40518.041744672824,-1687192.7125581405,8720.43634304987,87154.78583425417,66792.70478504892,974129.2429692117,33930437911.562943,24014488763.472042,90079066.43440919
1.7120622568093384,1255.9235523002976,1338.1277180132754,356.6124971389334,377.1572442206454,0.0,0.0,22271.833061252644,-1663561.725311116,-187.51813189301743,88231.54459448619,67291.48428508849,973452.9105283268,33944195543.37502,24009355078.67743,91675050.8007476
1.715953307392996,1650.0,1650.0,0.0,0.0,0.0,0.0,-6828.241937057105,-1638980.8987175226,-11882.928049422362,89460.19882198294,68346.8563971331,971970.6462275756,33965704764.654037,24004973564.31838,87626439.28497054
1.7198443579766538,795.4039826047151,630.9956511787594,289.7161821927214,664.0535591668574,0.0,0.0,-37999.809504495664,-1616503.585704433,-24820.412208904356,90629.72540732195,69513.07327234963,970252.6666908074,33985894009.65089,24002376189.156578,79330628.11441113
1.7237354085603114,0.0,0.0,1482.7718013275348,1650.0,0.0,0.0,-61969.47211700807,-1599077.491345535,-36865.18144872705,91521.52944505138,70277.8497618179,968986.2772558759,33996081422.123016,24001583791.778652,70147593.66156834
1.727626459143969,127.7500572213321,139.43236438544295,1650.0,1512.5818265049209,0.0,0.0,-72109.84444619772,-1589372.6987599854,-45681.79926317987,91958.96188638404,70264.69534137062,968694.9547661765,33992347283.78967,24001914809.87926,63829847.04126714
1.7315175097276265,1247.463950560769,1246.6582742046235,481.5175097276265,370.7118333714809,0.0,0.0,-66522.03635148495,-1589462.2559667057,-49267.096043453945,91852.1318793474,69384.85187485682,969523.1432575581,33977607172.219635,24002552740.45864,62805981.76567816
1.735408560311284,1120.9475852597848,959.7619592584116,179.71618219272148,351.77843900206,0.0,0.0,-48349.73047773439,-1600305.2431333368,-46497.878937381785,91225.41159849547,67878.87688777893,971175.8163915217,33960213334.413433,24002995348.52581,67096852.79274247
1.7392996108949417,0.0,0.0,1338.1277180132754,1550.0709544518197,0.0,0.0,-24296.26876763771,-1621161.797283433,-37534.38303348998,90218.09400430799,66231.00871010555,973038.1605086492,33949729263.592106,24003157155.568577,74337244.87199785
1.7431906614785992,86.63538567177841,111.23369192034795,1650.0,1610.0938429846647,0.0,0.0,-1986.937754599029,-1649216.561343199,-23936.68041707819,89055.14190694918,64989.20592477886,974426.4743294594,33952041489.670227,24003163909.24764,80877019.84467147
1.7470817120622568,1266.39734493019,1253.103685053788,631.3984893568322,414.21835660334176,0.0,0.0,12780.09094235915,-1679711.942208185,-8416.787374163998,87993.34997153452,64560.56343983145,974867.128193216,33966360013.487263,24003079984.794765,83466141.0679467
1.7509727626459144,1650.0,1650.0,0.0,0.0,0.0,0.0,17862.79895416525,-1706758.1074510694,5749.60103171064,87256.09514886256,65061.205814265195,974288.5345300032,33985683300.179436,24002819489.86774,80782617.70507528
1.754863813229572,1650.0,1650.0,0.0,0.0,0.0,0.0,15058.672304715978,-1724729.8741036493,15519.518458122464,86974.53619784162,66278.13590406455,973046.5283610554,34000474915.39531,24002316301.105324,74132932.07436292
1.7587548638132295,1325.639734493019,1272.0370794232088,138.2238498512245,233.31883726253145,0.0,0.0,8844.891927129094,-1729882.400302461,18875.1735415846,87152.71072026946,67756.52077884096,971771.8916861059,34003598416.356785,24001799152.818798,67001641.86904223
1.7626459143968871,126.94438086518652,73.74456397344932,1248.6724650949875,1411.8471046005952,0.0,0.0,4176.774846473038,-1721642.3608669075,15379.531493863758,87668.03523986801,68976.96629725634,971102.014991276,33993904908.303158,24001902047.573982,63605229.080864556
1.7665369649805447,0.0,13.721675440604258,1650.0,1650.0,0.0,0.0,4283.2741318526005,-1703053.444481681,6314.389774529828,88308.64038613434,69552.75474344962,971406.8402501906,33976616347.15362,24003428023.028046,67024423.69207581
1.7704280155642023,1170.4966811627376,1209.5719844357977,936.3973449301899,555.2620737010758,0.0,0.0,9351.797170317406,-1680094.1900832006,-5664.142759110343,88837.71087034796,69370.2830768064,972622.4602988826,33960386212.04312,24006827532.31901,77685090.18730891
1.7743190661478598,1650.0,1650.0,0.0,0.0,0.0,0.0,16596.249805926036,-1659971.5879501055,-17271.747020629085,89066.15127960856,68619.41669466162,974262.5757270695,33952697216.706947,24011692102.88864,92850533.24672799
1.7782101167315174,1429.9999999999998,1390.4966811627376,111.63653009842072,168.8395513847562,0.0,0.0,21621.865137076915,-1648886.0231935561,-25532.28575705678,88911.52689082536,67704.56143717139,975605.8961468606,33956106126.433422,24016629930.831352,107410070.70976412
1.7821011673151752,259.90615701533534,211.94323643854432,1254.3121995880063,1300.235751888304,0.0,0.0,20474.78897978003,-1650006.171828303,-28623.609684678406,88424.75178967293,67074.27979470241,975985.8119077935,33967316599.60514,24019714380.06465,115735260.31520392
1.7859922178988328,0.0,0.0,1650.0,1650.0,0.0,0.0,11501.838784147158,-1662376.9631083764,-26370.31308122767,87775.58911679221,67038.58618930411,975066.4403994892,33979461987.587032,24019363895.33606,113920685.30426073
1.7898832684824904,1042.7718013275348,1071.7761501487755,1203.1265735866332,796.6124971389335,0.0,0.0,-3755.8185328955415,-1681194.673969233,-20226.194605549557,87200.78216273362,67646.46203881926,972993.6608068636,33986206646.90484,24015217545.180386,101516487.15354763
1.793774319066148,1650.0,1650.0,43.93453879606317,0.0,0.0,0.0,-21000.927603101383,-1699412.4776394216,-12750.007039385979,86930.4658244953,68670.70490429521,970359.2098881083,33985308161.46845,24008504060.86542,81999952.71031685
1.7976653696498055,1489.2172121766994,1492.4399176012816,25.403982604714994,124.12451361867703,0.0,0.0,-34766.3355633171,-1710156.1171836872,-6742.493034540121,87115.51617685618,69703.55309904033,967990.3162625856,33979647161.321808,24001629542.414375,61696949.57432655
1.801556420233463,367.89196612497136,362.2522316319524,1201.515220874342,1252.2980086976424,0.0,0.0,-40500.39744463688,-1709116.12860935,-4325.078530652168,87778.3124516532,70322.34617808013,966646.6472723463,33975204459.304592,23997122174.236862,47487370.51881252
1.8054474708171206,0.0,0.0,1650.0,1650.0,0.0,0.0,-36308.91569906217,-1696066.7237583352,-6261.150990257889,88802.01712341659,70257.48680193981,966742.6578021806,33977210090.232243,23996443568.580803,44162765.087147206
1.8093385214007782,809.1004806591898,882.8198672465095,1337.7248798352025,1052.037079423209,0.0,0.0,-23660.57215770636,-1674959.7250357368,-11740.359163608291,89961.33778127629,69495.69398230533,968202.3747423056,33986724719.28016,23999286818.128872,52510845.86085932
1.8132295719844358,1650.0,1650.0,157.962920576791,0.0,0.0,0.0,-6789.107412185734,-1652552.3151097354,-18690.549034633153,90984.82328614294,68279.18905740108,970500.0846267175,33999664258.716446,24003750988.292957,68960484.70630434
1.8171206225680934,1498.4824902723735,1498.0796520943006,0.0,96.70634012359811,0.0,0.0,8948.726226024934,-1636062.644753108,-24503.465006621216,91629.28898786027,67004.36575833555,972866.3293697097,34008890010.556244,24007323430.57601,86999206.93160924
1.821011673151751,374.74021515220875,369.50331883726255,1083.0556191348135,1259.9519340810255,0.0,0.0,19089.164707469445,-1630705.591381879,-26920.867020338977,91743.95479907488,66063.97609674459,974574.1507146284,34008242274.53384,24008163559.69115,99818891.55818075
1.8249027237354085,1633.4584573128864,1650.0,289.31334401464864,73.74456397344932,0.0,0.0,21648.15275322822,-1638003.3440341176,-24776.175537253574,91306.0757525521,65698.4691253437,975191.520109075,33996273541.83606,24006010743.77218,103085101.59930895
1.828793774319066,356.6124971389334,370.7118333714809,932.3689631494622,1209.5719844357977,0.0,0.0,17669.036721514156,-1655471.6636853793,-18341.615105110188,90419.5691553707,65916.34879393593,974703.4694794165,33977565163.3252,24002237106.244534,96630534.72939417
1.8326848249027237,0.0,0.0,1650.0,1650.0,0.0,0.0,10556.35172041429,-1677761.2883259272,-9172.918167468151,89279.9347430058,66513.12063910751,973463.5720477749,33960817488.976654,23999029726.4566,84317808.32046905
1.8365758754863812,289.7161821927214,351.77843900206,1491.6342412451363,1390.4966811627376,0.0,0.0,4515.471961943411,-1698783.0378312662,477.49063720505677,88118.64374408459,67176.50834789628,972005.3996313582,33954662900.370457,23998160948.04175,72127111.73377226
1.8404669260700388,1482.3689631494622,1550.0709544518197,373.12886243991755,211.94323643854432,0.0,0.0,2769.5441270537735,-1713976.697165331,8456.245571762507,87145.03934091263,67629.7453469116,970800.8961336201,33963392559.1488,24000026133.606674,65340448.72770681
1.8443579766536966,502.4650949874113,664.0535591668574,1442.4879835202564,1271.6342412451363,0.0,0.0,6292.882690597677,-1721841.3041214596,13421.130570034891,86502.45306360869,67749.83822392696,970071.1712838943,33984833489.68312,24003471595.589787,66130506.65766507
1.8482490272373542,1536.3492790112155,1512.5818265049209,0.0,13.721675440604258,0.0,0.0,13561.671258745873,-1724146.161954786,15213.640284384606,86248.71458343214,67609.84982585437,969728.883248354,34011450072.894608,24006489614.373146,72692814.08020684
1.8521400778210118,0.0,0.0,1650.0,1650.0,0.0,0.0,21382.531478452158,-1724771.5043185207,14765.938871044596,86362.23088005451,67428.1557811104,969471.8110266209,34034023461.386242,24007373345.197033,80340093.72650538
1.8560311284046693,1650.0,1610.4966811627373,0.0,0.0,0.0,0.0,26403.55155925768,-1727678.356008412,13591.305960563794,86766.66019395317,67448.79496277642,968979.9747116354,34045928653.443356,24005674062.41151,84034114.71611007
1.859922178988327,481.5175097276265,414.21835660334176,664.0535591668574,1071.7761501487755,0.0,0.0,26631.423990952368,-1734861.2040630619,13063.208107073344,87362.60442839462,67807.83260662739,968122.4865341439,34045796008.353607,24002425581.346577,81114808.74396853
1.8638132295719845,0.0,0.0,1650.0,1650.0,0.0,0.0,22288.553542810387,-1745151.9064126206,13767.41371425455,88054.84065846672,68447.72829158852,967075.0853293387,34037306809.750103,23999523218.7592,72858771.61857125
