time,eeg-ch1,eeg-ch2,eeg-ch3,eeg-ch4,eeg-ch5,eeg-ch6,gyro-gyro1,gyro-gyro2,gyro-gyro3,acc-acc1,acc-acc2,acc-acc3,ppg-ambient,ppg-ir,ppg-red
0.0,0.0,0.0,1497.2739757381548,1650.0,0.0,0.0,15259.021896667959,-1693751.4305333307,-45777.06569011771,93202.10574502169,67078.66025787746,971023.1174181737,33784297581.44502,23871833936.064674,65536949.72151423
0.00390625,1650.0,1650.0,0.0,0.0,0.0,0.0,-1761.7810675944909,-1866882.272510669,-63673.015267411036,101311.79774807944,73066.39075658708,1067712.9239710285,37612541744.001205,26570758342.567482,76376428.7071497
0.0078125,985.9464408331424,941.2314030670634,128.15289539940488,521.8013275349051,0.0,0.0,-22482.300035764885,-1919690.1730716308,-76919.0299410434,102693.59117080182,74176.49277288304,1096502.381918937,38105808845.37779,26910167598.27191,79012211.62969247
0.01171875,0.0,0.0,1244.6440833142597,1580.2838178072786,0.0,0.0,-43981.74720220047,-1876762.119684457,-83231.33835183182,98974.1557927777,71543.67862132448,1071693.5601338102,36325722374.267715,25641873659.170208,74261497.67742208
0.015625,0.0,0.0,1650.0,1650.0,0.0,0.0,-63393.61181098218,-1780484.4002264414,-82045.18512558445,92696.75671129489,66995.90634267894,1017259.8764827914,33833450293.736183,23871833936.064655,65536949.72151422
0.01953125,814.3373769741359,859.0272373540855,947.2739757381551,922.7008468757153,0.0,0.0,-78485.0744102907,-1677649.7541351202,-74732.61101900467,86523.47751935793,62482.32288441796,959232.6772997468,32015877832.081566,22583228164.90677,57505577.503841385
0.0234375,0.0,35.474937056534706,1650.0,1650.0,0.0,0.0,-87962.56154445042,-1606186.2267746965,-64194.76483132527,82490.0618141571,59523.080897901156,918355.6952540838,31579425184.353924,22277549536.644405,54178501.144683614
0.02734375,1650.0,1650.0,0.0,0.0,0.0,0.0,-91482.41996720704,-1585946.8035869384,-53941.69922579058,81533.88937729354,58844.884204875314,905181.3208182872,32408403744.61461,22873290196.341263,57265189.88069882
0.03125,57.63103685053784,43.93453879606317,949.6910048065919,1498.0796520943006,0.0,0.0,-89450.56857907871,-1615945.7040441178,-46959.37551258722,83411.09966511892,60296.048965174625,918839.505962307,33800681818.87542,23871833936.06467,65536949.72151423
0.03515625,0.0,0.0,1650.0,1650.0,0.0,0.0,-82745.93979915525,-1678223.4095890461,-44750.31303686187,86984.70751047065,63039.34239535915,949444.7024437046,34921353919.4799,24678440836.262394,75494199.32402268
0.0390625,1132.227054245823,1101.6113527122911,0.0,358.2238498512245,0.0,0.0,-72486.76062167724,-1746423.205640466,-46885.15542665203,90748.39222168546,65932.73301851195,982955.3463454365,35234988047.63971,24909188947.101517,83026716.6598623
0.04296875,983.1265735866332,1101.6113527122911,977.4868390936141,770.0,0.0,0.0,-59893.76220372275,-1795844.4162474978,-51230.2687405012,93388.39040451469,67956.02103811903,1006634.4562917235,34718127403.62726,24543259791.373848,85289356.70365271
0.046875,673.7216754406043,701.1146715495537,962.5818265049211,977.4868390936141,0.0,0.0,-46228.15555889855,-1811578.3978069301,-54779.811655898775,94195.18145973377,68539.94156412728,1013261.5739928554,33784297581.44502,23871833936.064655,81921187.15192184
0.05078125,1287.7477683680477,1265.5916685740444,0.0,128.15289539940488,0.0,0.0,-32734.58452234334,-1792299.516178313,-54803.43619379196,93208.29363818401,67700.54693854746,1002860.3428836876,33001513258.33379,23299235097.41623,75064113.74451442
0.0546875,1650.0,1650.0,0.0,0.0,0.0,0.0,-20523.578640047657,-1748966.8906607663,-49902.07680597202,91081.59643874549,65956.373141708,981674.1044342585,32773324583.98537,23116704626.175694,68224913.70704511
0.05859375,143.05790798809798,125.73586633096818,788.5557335774777,1244.6440833142597,0.0,0.0,-10380.386119015511,-1699472.2866673952,-40589.45663333561,88753.98454268728,64081.56725508059,959085.0253249009,33150074590.838985,23366798596.957592,64576727.37872153
0.0625,0.0,0.0,1650.0,1650.0,0.0,0.0,-2558.425423182487,-1661535.4885483675,-29180.032687924708,87067.93632664988,62798.8741831192,943801.7338363751,33849834531.166534,23855449698.634304,65536949.72151417
0.06640625,647.1091783016708,646.3035019455252,1106.0425726710916,947.2739757381551,0.0,0.0,3334.4471574046074,-1646510.9173057629,-19009.060189384363,86479.50304194908,62526.69131962543,940749.3749684121,34451328308.42495,24286253888.20485,70276010.4970529
0.0703125,1650.0,1650.0,43.93453879606317,0.0,0.0,0.0,8252.408127048753,-1656178.0624155062,-13250.625446580185,86952.88325945854,63264.00669501779,949693.8115751072,34636787535.08742,24431671693.5594,76314299.99483292
0.07421875,1495.2597848477913,1495.6626230258637,0.0,0.0,0.0,0.0,13391.71027674584,-1683327.9097933646,-13748.602053404498,88054.0140029251,64639.91239710283,965905.8620286918,34350834737.850475,24246738380.66222,80821005.72360873
0.078125,379.1714351110094,379.1714351110094,644.2893110551614,945.6626230258639,0.0,0.0,19699.466668818484,-1715525.2990731825,-20278.862854202966,89182.0375276259,66092.8905075053,982407.735144835,33800681818.875427,23871833936.06465,81921187.1519219
0.08203125,0.0,0.0,1650.0,1650.0,0.0,0.0,27374.856981502584,-1740344.2670684513,-30515.74062710173,89832.70009655492,67101.45755882192,992817.422151292,33315015919.20237,23535552967.008816,79390447.31685385
0.0859375,676.1387045090408,676.5415426871136,1273.6484321355,1020.6157015335317,0.0,0.0,35570.65724243147,-1749999.085017647,-40731.8565707531,89787.56026120028,67376.24403944379,993685.2135865042,33152314531.44775,23420574637.197964,74502880.70629102
0.08984375,1650.0,1650.0,121.30464637216754,5.664911879148575,0.0,0.0,42462.791090174775,-1743707.6547344574,-47003.677846103405,89163.29799843852,66945.80133131634,985507.8969014607,33367096891.14194,23568613199.0897,69263483.12933592
0.09375,1650.0,1650.0,0.0,0.0,0.0,0.0,45734.82620491734,-1727115.9529460554,-46516.108822375274,88317.35542544819,66113.65797511744,972168.8904534556,33800681818.87542,23871833936.064663,65536949.72151422
0.09765625,0.0,0.0,1650.0,1650.0,0.0,0.0,43362.853320325645,-1709276.0851829771,-38521.272133287144,87663.82245147806,65314.05268953219,959157.965819544,34189351173.560463,24146833382.465595,64538070.143949725
0.1015625,1617.7477683680477,1618.1506065461203,379.1714351110094,85.42687113756006,0.0,0.0,34446.44354109896,-1698563.4402057547,-24622.79632463264,87484.73196970242,64929.585284567605,951346.57705108,34319814199.686604,24242960020.615227,66831823.3630478
0.10546875,1650.0,1650.0,0.0,0.0,0.0,0.0,19774.188739863715,-1699224.95760977,-8286.474200419967,87816.47022056264,65143.46747699225,951193.5629518527,34142514787.678867,24122579828.847694,72621209.86115068
0.109375,844.5250629434654,844.5250629434654,676.5415426871136,630.9956511787594,0.0,0.0,1871.2187491194156,-1709891.293718597,6259.280772556986,88453.66357851238,65880.4495501381,958020.8086198567,33784297581.445004,23871833936.064663,81921187.15192188
0.11328125,0.0,0.0,1650.0,1650.0,0.0,0.0,-15559.102280939946,-1724534.293446664,15365.253360795168,89060.7819848566,66852.7410081162,968543.36561154,33462177684.772438,23642098047.313488,94346458.72456339
0.1171875,441.23369192034784,441.6365300984206,1650.0,1392.5108720531016,0.0,0.0,-28670.005829611688,-1735357.1810057566,17100.798199338064,89336.75900986935,67685.84365327969,978350.5167576965,33354221769.761143,23560335446.65518,108596487.63041951
0.12109375,1537.9606317235066,1538.7663080796522,678.1528953994048,244.19546807049664,0.0,0.0,-34663.25318040568,-1736355.3029183047,11821.105646861652,89158.04323470249,68070.10312926276,983698.5372560809,33502670606.023594,23660438757.552673,122064083.75087872
0.125,1650.0,1650.0,0.0,0.0,0.0,0.0,-32731.024661881205,-1726058.2411972696,1990.7690108929778,88637.57621702243,67877.29721296257,982907.0283866617,33800681818.875435,23871833936.064674,131073899.44302846
0.12890625,992.4170290684367,992.8198672465095,603.1998168917373,662.4422064545663,0.0,0.0,-24397.009453877206,-1708328.8455539215,-8657.449497900236,88074.94903219554,67198.87031539658,976854.8562994709,34063765764.77237,24067104192.08031,131972638.89640132
0.1328125,603.1998168917373,603.1998168917373,1495.6626230258637,1182.1789883268484,0.0,0.0,-13095.934954332144,-1690892.8639751817,-16333.477567077734,87820.00804682708,66295.51961414154,968451.9780164112,34139812399.13131,24137597305.093964,122770153.78478904
0.13671875,677.750057221332,678.1528953994048,646.3035019455252,779.2904554818036,0.0,0.0,-3092.367246641149,-1682185.4471874658,-18365.312765971183,88108.88206980607,65483.13812076269,961363.295456517,33993387513.405315,24052834628.511276,104568678.18590645
0.140625,0.0,0.0,1618.1506065461203,1650.0,0.0,0.0,1919.9179212085667,-1687773.1780491653,-13963.384863745187,88942.9945691176,65003.86067853966,958527.1277384184,33718760631.723503,23871833936.064655,81921187.15192185
0.14453125,231.30464637216753,231.30464637216753,1650.0,1588.3405813687343,0.0,0.0,67.16949498213167,-1707786.6511916027,-4351.536412624858,90063.87146287429,64934.484799883394,961051.921032752,33478973266.441353,23703536582.724182,61654631.09560607
0.1484375,1650.0,1650.0,0.0,0.0,0.0,0.0,-8043.080243293798,-1736416.3601373662,7738.391254940086,91037.16999013959,65167.386485299154,967890.1744094135,33409779165.71512,23642083599.98913,50429356.043883815
0.15234375,961.3733119707027,961.3733119707027,441.6365300984206,682.5841153582055,0.0,0.0,-19492.946938196295,-1763734.1219263207,19003.192081013833,91414.59950493863,65468.77358294379,976363.8214536485,33544497046.25163,23714907986.7672,52013855.227904215
0.15625,1379.2172121766991,1379.6200503547723,844.5250629434654,522.2041657129778,0.0,0.0,-30015.333957177376,-1779206.8251949004,26603.581051176538,90910.39478208701,65588.045286253,983283.7753317037,33800681818.875412,23871833936.064663,65536949.72151422
0.16015625,0.0,0.0,1538.7663080796522,1650.0,0.0,0.0,-35424.31082586153,-1775609.2399705756,28957.25802995026,89522.44667450704,65372.32489714134,986195.2474880723,34032480466.77289,24018528627.772488,85634499.40914467
0.1640625,35.474937056534706,35.474937056534706,1650.0,1650.0,0.0,0.0,-33023.36278037221,-1751867.4442916114,26055.084292661122,87549.46454230607,64839.22628422299,984262.8074297558,34115567717.24992,24072589984.11981,104556956.03175163
0.16796875,1101.6113527122911,1101.6113527122911,992.8198672465095,764.7631036850538,0.0,0.0,-22502.518746535337,-1713740.5871560534,19242.969529350863,85495.94134420904,64178.427417460494,978479.2866041003,34015262821.7522,24009278905.470287,115353767.01255858
0.171875,1650.0,1650.0,0.0,0.0,0.0,0.0,-6012.873735582832,-1672036.672302524,10595.325126794532,83900.10319258388,63681.30946197248,971163.2333569968,33800681818.875412,23871833936.064667,114689662.01262079
0.17578125,940.8285648889906,941.2314030670634,231.30464637216753,527.0382238498512,0.0,0.0,12601.962796272015,-1638965.6772465266,2132.3144210323458,83149.4167423862,63626.32787983611,964985.7926706346,33600081426.11369,23742789723.181877,103988003.37679143
0.1796875,0.0,0.0,1379.6200503547723,1581.8951705195695,0.0,0.0,29137.519752984044,-1623925.00889476,-4836.4936097850405,83352.35343518411,64164.90555947604,961933.5140711677,33525714772.179134,23694878351.32604,88395008.81923763
0.18359375,0.0,0.0,1650.0,1650.0,0.0,0.0,40442.298473746225,-1630232.898163284,-10028.474649523032,84312.79545394702,65252.13623268855,962611.657769508,33611972054.95902,23750453615.73538,74125006.36445004
0.1875,858.6243991760127,859.0272373540855,961.3733119707027,923.1036850537881,0.0,0.0,45405.23099186049,-1653993.3246893866,-14088.005817330593,85613.85383042658,66649.07943461275,966134.1585357212,33800681818.875427,23871833936.064655,65536949.72151419
0.19140625,1650.0,1650.0,0.0,0.0,0.0,0.0,45165.11135595755,-1685512.2432638374,-18147.023253909392,86776.60816241591,67996.04493326704,970602.4241106618,33979148141.316387,23986191095.44859,63393689.64299415
0.1953125,1101.6113527122911,1101.6113527122911,35.474937056534706,377.5600823987182,0.0,0.0,42475.74268959502,-1712767.0135908076,-23237.541716450265,87432.28502384001,68929.70642311193,973945.431634296,34046644639.184116,24028895400.191143,65110092.220028915
0.19921875,43.93453879606317,43.93453879606317,1101.6113527122911,1510.5676356145573,0.0,0.0,40471.07635956379,-1725691.68604281,-29786.73978140695,87443.64626828804,69201.21265224533,974766.6158492352,33970473503.846542,23979724660.72452,66739472.976477474
0.203125,0.0,0.0,1650.0,1650.0,0.0,0.0,41297.13875329822,-1719746.7880268954,-37380.43956264425,86933.17652721335,68753.26957495243,972862.2779586802,33800681818.875412,23871833936.064663,65536949.72151417
0.20703125,701.1146715495537,701.1146715495537,941.2314030670634,985.9464408331424,0.0,0.0,45130.34952339445,-1697498.1959377727,-44873.26499860537,86212.84172346101,67730.5799483138,969225.7836780642,33637414788.096737,23769928434.96778,61657247.51906206
0.2109375,1650.0,1650.0,0.0,0.0,0.0,0.0,49964.59929973826,-1667641.9134150464,-50794.7473440756,85647.87214385082,66423.27336689607,965565.8572871942,33571816091.04335,23731726261.64353,58043840.40674284
0.21484375,1265.1888303959718,1265.5916685740444,0.0,206.30350194552534,0.0,0.0,52270.78179629992,-1641823.423725102,-53896.037634241475,85510.62786102665,65167.166423792805,963558.4256630009,33635140742.207615,23775503561.96748,58578322.457306996
0.21875,125.73586633096818,125.73586633096818,858.6243991760127,1346.9901579308766,0.0,0.0,48312.40772128601,-1630385.4777168476,-53636.20780533051,85881.51405979531,64238.783552118206,964145.9524071254,33784297581.445026,23871833936.064663,65536949.72151417
0.22265625,0.0,0.0,1650.0,1650.0,0.0,0.0,35654.795335379495,-1638558.1231187107,-50432.71354704552,86632.6486660633,63782.217766213056,967163.9330407132,33930065426.660717,23962926706.426228,77811987.40057632
0.2265625,646.3035019455252,646.3035019455252,1101.6113527122911,960.97047379263,0.0,0.0,14322.170770653629,-1664447.296483525,-45585.096325798164,87495.70896038781,63790.22810671013,971431.1529528219,33989883825.608566,23997097879.70687,90967375.86023363
0.23046875,1650.0,1650.0,43.93453879606317,0.0,0.0,0.0,-12832.351854545264,-1699542.8871295738,-40893.28544376482,88182.04216129858,64139.83585008447,975250.0046749711,33934215303.71534,23957941605.608936,99210800.33104955
0.234375,1495.6626230258637,1494.4541084916457,0.0,39.10048065918976,0.0,0.0,-40712.68677506706,-1731581.5271623635,-38093.619707235266,88503.81606406564,64662.05229654748,977102.6556566827,33800681818.875427,23871833936.06465,98305424.58232953
0.23828125,379.1714351110094,377.1572442206454,701.1146715495537,1097.1549553673608,0.0,0.0,-63361.70238766946,-1748776.5747610086,-38294.41307472016,88446.83499415891,65214.18977360197,976259.7893506056,33669638215.27105,23790583122.75761,87889206.83569507
0.2421875,0.0,0.0,1650.0,1650.0,0.0,0.0,-75702.98238579548,-1743954.7760256343,-41591.73682746122,88167.17906684779,65725.33327303278,973063.913646146,33616878611.686226,23760389606.83491,71929516.23080307
0.24609375,676.1387045090408,670.498970016022,1265.5916685740444,1009.7390707255664,0.0,0.0,-75078.031391189,-1717176.2852725955,-46988.09069194313,87915.80717584175,66199.39914013141,968785.9331375521,33671240066.43057,23795561970.920322,56992471.52203721
0.25,1650.0,1650.0,125.73586633096818,0.0,0.0,0.0,-62077.7033686325,-1675941.9799747257,-52642.16101165513,87924.58455651971,66679.5840287189,965124.2448663742,33800681818.87542,23871833936.064663,49152712.29110653
0.25390625,1650.0,1628.22156099794,0.0,0.0,0.0,0.0,-40397.87361830969,-1632919.3095042072,-56377.148196878945,88302.17367746911,67194.73363925406,963551.9461813568,33933168407.87283,23942204772.68437,51101438.601441965
0.2578125,676.9443808651864,596.7544060425727,645.9006637674524,863.4584573128863,0.0,0.0,-15768.138548415292,-1601955.2602131092,-56298.54332981794,88983.21462931107,67715.41388486486,964768.2970536274,33998768422.05329,23965173644.400642,60933187.38873982
0.26171875,0.0,0.0,1650.0,1650.0,0.0,0.0,5700.074207775493,-1593705.6281374006,-51341.37285645015,89751.69451363463,68142.48786875469,968459.6776506719,33968173140.02308,23928571680.39848,73236149.43493338
0.265625,601.9913023575189,680.9727626459144,1491.2314030670634,1149.14625772488,0.0,0.0,19221.941216762876,-1612309.552070986,-41589.16635125304,90328.78257641775,68336.11268652632,973447.4826873706,33866218768.59692,23855449698.634304,81921187.15192181
0.26953125,1619.7619592584113,1650.0,373.12886243991755,68.50766765850312,0.0,0.0,22577.900508226656,-1654156.5837069934,-28274.217028033254,90489.1394046602,68174.63504322726,978148.9526967534,33754291583.658276,23789365877.148014,83324845.94908847
0.2734375,1650.0,1650.0,0.0,0.0,0.0,0.0,16524.106179762755,-1709075.4592417073,-13460.826638681141,90158.25552734827,67618.64858088814,981161.6408312793,33693423773.549557,23768378191.552845,77984883.95008771
0.27734375,826.8001831082628,764.7631036850538,674.124513618677,706.7544060425726,0.0,0.0,4292.616238241106,-1763474.1327764413,496.28469964411516,89451.09061613226,66751.47962383047,981745.7405248864,33710143376.846718,23803179498.77595,70185522.85396121
0.28125,0.0,0.0,1650.0,1650.0,0.0,0.0,-9610.930090792297,-1804352.415780308,11562.71389204631,88635.81117183376,65775.41261274883,980030.6880599072,33784297581.44501,23871833936.064648,65536949.7215142
0.28515625,455.33302815289534,522.2041657129778,1647.5577935454337,1289.7619592584113,0.0,0.0,-20895.961238709428,-1822887.654196361,18529.65749852875,88036.18264208167,64959.97541165947,976888.1590138323,33864425108.50369,23933547697.421207,67877591.68761863
0.2890625,1546.8482490272374,1579.8809796292057,646.3035019455252,151.92034790569926,0.0,0.0,-26781.780788322074,-1816514.7842197288,21270.215368698475,87910.2845181505,64557.85097888853,973544.3371560352,33900154786.23687,23952858934.442135,77133713.10644314
0.29296875,1650.0,1650.0,0.0,0.0,0.0,0.0,-26710.926225472846,-1788985.448325417,20675.92584169587,88352.25978555727,64717.78143664524,971098.559517269,33871893040.887356,23919940891.52092,89261773.75982442
0.296875,966.6102082856488,922.7008468757153,601.5884641794461,647.5120164797436,0.0,0.0,-22302.8365426968,-1748585.0860381243,18297.089073756164,89254.48748866016,65426.59904607792,970138.774037432,33800681818.875427,23855449698.6343,98305424.58232954
0.30078125,0.0,0.0,1621.3733119707024,1650.0,0.0,0.0,-16620.69942018966,-1705267.4847923412,15799.613957332554,90343.8827523666,66502.9791009279,970592.0774930072,33733486099.645184,23797638739.220634,99494456.7874416
0.3046875,276.82536049439227,358.2238498512245,1650.0,1495.6626230258637,0.0,0.0,-13033.980784031928,-1667742.6435114755,14408.711298203996,91277.54303051678,67647.18787173896,971846.2192673077,33713713787.062035,23779740382.943905,91771743.07298173
0.30859375,1421.9180590524147,1498.0796520943006,809.9061570153353,379.1714351110094,0.0,0.0,-14063.737283225226,-1641453.258772904,14517.179971335658,91760.89065270292,68530.927710464,973068.8954669092,33754973300.146908,23810948874.412987,78432527.40949915
0.3125,1650.0,1650.0,0.0,0.0,0.0,0.0,-20572.644686816966,-1627961.8384425496,15588.528103087041,91644.2218707594,68896.98629143923,973579.4566701225,33833450293.736153,23871833936.064663,65536949.7215142
0.31640625,968.6243991760128,977.4868390936141,442.0393682764934,676.5415426871136,0.0,0.0,-31525.590868844025,-1625714.8528823142,16394.30106127925,90963.52126460992,68635.13824873955,973118.5816520324,33902792728.85452,23926374285.98012,58901882.05700184
0.3203125,0.0,0.0,1540.4028381780727,1650.0,0.0,0.0,-44352.15136211026,-1631662.3215830466,15516.539955428369,89914.0743669574,67809.68458191343,971915.0385027021,33922050339.53142,23943184254.8589,61202436.7204086
0.32421875,82.60700389105055,128.15289539940488,1650.0,1650.0,0.0,0.0,-55755.37882110293,-1642962.4031599907,11953.575948158603,88771.47699894752,66631.57141638554,970539.2910907564,33879849658.538834,23913461219.16609,70651690.3425961
0.328125,1173.7193865873198,1244.6440833142597,941.6342412451362,678.1528953994048,0.0,0.0,-62689.35478086981,-1658064.2581212895,5621.401140863492,87793.72867736808,65387.460769016914,969622.386532722,33800681818.87544,23855449698.634308,81921187.15192184
0.33203125,1650.0,1650.0,0.0,0.0,0.0,0.0,-63202.03936138777,-1676792.3844080095,-2437.7551382495585,87142.95622135057,64352.185095534725,969569.2404595332,33730041300.370228,23803263116.59964,88833815.37715495
0.3359375,0.0,0.0,1388.4824902723733,1618.1506065461203,0.0,0.0,-56908.18791553287,-1699509.0813942791,-10244.297856407034,86854.60781959406,63714.75088099669,970389.5012238632,33707604333.75254,23786932181.43844,87479571.93834248
0.33984375,0.0,0.0,1650.0,1650.0,0.0,0.0,-44988.819029182494,-1725827.0959949396,-15446.339471722773,86860.6414452407,63540.633508428116,971712.1216850122,33744382353.81594,23815359302.871185,78209634.0777129
0.34375,927.1320668345159,945.6626230258639,964.5960173952849,844.5250629434654,0.0,0.0,-29762.413779680774,-1753530.7314043082,-16109.581525609814,87050.38905426791,63777.98784425333,972967.8360803194,33817066056.305775,23871833936.064663,65536949.72151419
0.34765625,1650.0,1650.0,0.0,0.0,0.0,0.0,-13992.573061957015,-1778275.372235317,-11488.817457289117,87337.85463791907,64298.82585508322,973652.2435089864,33882431878.200607,23924282213.173016,56009956.122318424
0.3515625,1024.2412451361868,1020.6157015335317,59.242389562828976,441.6365300984206,0.0,0.0,-155.4252103234872,-1794314.2161912047,-2517.9916923677106,87703.16818356006,64954.64386510931,973550.6545696218,33902932269.410843,23943939955.8495,55107054.29229103
0.35546875,5.664911879148575,5.664911879148575,1138.2696269169146,1538.3634699015793,0.0,0.0,10122.278884953419,-1796076.6185270997,8179.56255133468,88188.8965628052,65623.53976093647,972826.0643436944,33868299842.144638,23921533644.94496,64646447.02363043
0.359375,945.6626230258639,947.2739757381551,250.64087891966128,603.1998168917373,0.0,0.0,16314.869979178415,-1780061.0582752351,16823.939598880304,88853.2288841272,66232.78942945779,971933.4324947714,33800681818.875427,23871833936.06466,81921187.1519219
0.36328125,0.0,0.0,1650.0,1650.0,0.0,0.0,18903.115281639548,-1746346.6996441989,19450.36287741883,89702.61028720709,66753.58932189386,971399.7077824337,33740705761.58617,23824383822.07886,100918331.49109304
0.3671875,779.2904554818036,779.2904554818036,944.0512703135729,992.4170290684367,0.0,0.0,18999.839110544843,-1699131.6944864553,13067.340839237888,90637.42116199825,67177.4582962739,971567.2613391683,33723048933.436737,23806163982.338406,114994741.16762404
0.37109375,1650.0,1650.0,0.0,0.0,0.0,0.0,17836.359483813136,-1646034.9009641747,-3331.6700118311455,91440.92343258901,67491.13132768507,972414.3808870121,33756023913.416264,23826358906.640682,119734330.47082478
0.375,1182.1789883268484,1182.1789883268484,0.0,231.30464637216753,0.0,0.0,16278.350836037906,-1596328.3976989884,-28218.98909276913,91824.95268226424,67665.72984717837,973534.06716548,33817066056.305775,23871833936.06468,114689662.01262082
0.37890625,0.0,0.0,1650.0,1650.0,0.0,0.0,14518.816462585644,-1558642.4160362866,-57646.67389020733,91522.25914415164,67667.35365645954,974285.5971865521,33866516784.460606,23915514781.229416,103289413.76062599
0.3828125,630.9956511787594,631.3984893568322,1022.6298924238956,961.3733119707027,0.0,0.0,12035.590598901501,-1538866.308967266,-86041.98360125456,90394.43301177816,67484.13572161709,974060.2278489665,33871384057.080963,23932412408.910305,91066823.67878698
0.38671875,1650.0,1650.0,5.262073701075792,0.0,0.0,0.0,7819.675845338849,-1538895.5303114103,-107505.25484784406,88514.58282851888,67154.88893073468,972553.3131013474,33825063170.94806,23913852702.184116,83110153.91114448
0.390625,1392.1080338750287,1392.5108720531016,0.0,35.474937056534706,0.0,0.0,800.8828981746561,-1556576.081179993,-117278.09656328884,86189.69709951426,66781.4847502017,969930.1222761325,33751529106.584255,23871833936.06465,81921187.1519219
0.39453125,244.19546807049664,244.19546807049664,755.4978255893798,1101.6113527122911,0.0,0.0,-9660.764449769824,-1586786.090038703,-112988.22124685565,83907.23633082963,66512.77398110865,966813.6780873174,33691661772.608887,23831375065.489895,86595780.8608592
0.3984375,0.0,0.0,1650.0,1650.0,0.0,0.0,-23370.94438083302,-1623218.8898131994,-95327.26245737856,82216.91962473228,66500.10840408324,964093.1711256236,33679739875.62542,23815674850.72576,93578053.93802318
0.40234375,662.0393682764935,662.4422064545663,1184.9988555733576,941.2314030670634,0.0,0.0,-39116.802810527,-1660225.4874298233,-67966.52219076554,81582.15151547156,66838.23720286544,962622.5280961114,33723732113.721706,23832853798.51891,98517433.86942737
0.40625,1650.0,1650.0,83.41268024719614,0.0,0.0,0.0,-54777.10914030396,-1694103.8676829217,-36720.42416370363,82247.38404425417,67514.48409407231,962922.1172327703,33800681818.875435,23871833936.064663,98305424.58232951
0.41015625,1587.9377431906614,1588.3405813687343,0.0,0.0,0.0,0.0,-67720.21721577008,-1723467.5521793908,-8169.966971349283,84163.54838845246,68389.22493105754,964995.4033325105,33869692767.419117,23909399715.440285,92366729.00233452
0.4140625,85.02403295948726,85.42687113756006,901.3504234378577,1379.6200503547723,0.0,0.0,-75400.0500034976,-1748688.0954745277,11898.366430477647,86995.05062730826,69220.92115560648,968327.6689334221,33894929256.453796,23923987251.221657,82690552.66487801
0.41796875,522.2041657129778,522.2041657129778,631.3984893568322,858.6243991760127,0.0,0.0,-75997.99227562585,-1770748.3831679297,19837.75312167257,90205.47187787978,69732.57776765671,972063.991100707,33865445990.371117,23908034435.54623,72695192.49260737
0.421875,0.0,0.0,1650.0,1650.0,0.0,0.0,-68935.87025638645,-1790040.778894859,14932.723979890316,93194.41522920303,69699.71415501923,975296.3914359992,33800681818.875412,23871833936.064663,65536949.72151422
0.42578125,1650.0,1650.0,244.19546807049664,43.93453879606317,0.0,0.0,-55111.00488393779,-1805629.440124148,-549.6301677085602,95443.35530737776,69029.55326572858,977351.6399339943,33738790182.661892,23836965680.000885,62680606.2279431
0.4296875,1650.0,1650.0,0.0,0.0,0.0,0.0,-36774.08288039071,-1815283.4629525577,-22041.559845146927,96628.35585428879,67801.76710561565,977975.7211943377,33714760287.27254,23823455575.932274,63374848.596849374
0.43359375,764.7631036850538,764.7631036850538,662.4422064545663,701.1146715495537,0.0,0.0,-17066.39643017176,-1816264.1364051844,-43896.93652495695,96671.19704819111,66253.24492989221,977355.2654999248,33740908555.345398,23838284391.36254,65224389.793587916
0.4375,0.0,0.0,1650.0,1650.0,0.0,0.0,672.0457860409545,-1806541.4120076473,-60832.31516531045,95722.09591724942,64708.938707932015,975981.5406279501,33800681818.87538,23871833936.064663,65536949.7215142
0.44140625,522.2041657129778,522.2041657129778,1588.3405813687343,1265.5916685740444,0.0,0.0,13646.146210862767,-1785938.4393735514,-69222.46380267704,94088.72206746803,63480.740325462415,974422.4684567138,33858909985.752544,23904050720.270485,62777387.565834776
0.4453125,1579.8809796292057,1579.8809796292057,522.2041657129778,125.73586633096818,0.0,0.0,20207.540460965727,-1756722.9525942064,-67935.26574049504,92140.26383782318,62768.97745838361,973099.2257705289,33882257301.98774,23916427066.30589,57428743.90894239
0.44921875,1650.0,1650.0,0.0,0.0,0.0,0.0,20160.701452934187,-1723369.5867054674,-58514.805501530354,90217.92918233054,62601.40330526153,972155.2341359919,33858019333.978947,23902658369.82671,51845264.16882259
0.453125,922.2980086976426,922.7008468757153,682.5841153582055,646.3035019455252,0.0,0.0,14703.591424079106,-1691527.744421944,-44686.22904231279,88575.06748726891,62831.96462296489,971461.95565768,33800681818.875397,23871833936.064644,49152712.29110651
0.45703125,0.0,0.0,1650.0,1650.0,0.0,0.0,6036.320631073136,-1666527.4453865313,-31320.84852025574,87355.56604219221,63200.499540970566,970746.7878607077,33742895968.088123,23842550743.014336,51695830.88190622
0.4609375,682.5841153582055,682.5841153582055,1392.5108720531016,1101.6113527122911,0.0,0.0,-3238.3417387470804,-1651929.5968617757,-23127.00293513441,86604.59444010806,63432.507168396834,969778.0575250413,33716459639.540184,23831671376.05795,59753714.76956866
0.46484375,358.2238498512245,358.2238498512245,1650.0,1495.6626230258637,0.0,0.0,-10748.837768466792,-1648614.316760802,-23394.053597101196,86296.6018764208,63343.39030587473,968520.828099262,33734400302.356606,23844459750.307,71140406.76703073
0.46875,1498.0796520943006,1498.4824902723735,764.7631036850538,379.1714351110094,0.0,0.0,-14854.050131336518,-1654708.7547514506,-33101.4755432346,86364.28990721014,62909.64934694154,967192.7411804682,33784297581.44502,23871833936.06466,81921187.15192188
0.47265625,1650.0,1650.0,0.0,0.0,0.0,0.0,-14894.235298811825,-1666357.898088611,-50616.7715986682,86718.05998316538,62281.22896016899,966193.9956513585,33836286160.15215,23896159750.547905,87972644.31928097
0.4765625,977.0840009155413,977.4868390936141,522.2041657129778,676.5415426871136,0.0,0.0,-11165.27075388342,-1679049.1470931927,-72064.49613647549,87254.36763872672,61730.35117052554,965940.6114348744,33860717805.51423,23901970233.858322,86720959.87952831
0.48046875,0.0,0.0,1579.8809796292057,1650.0,0.0,0.0,-4673.051998551875,-1689020.5001400267,-92285.09382539228,87858.8359784417,61554.97330908561,966672.3753106714,33845104680.670017,23885189407.02712,78290233.34791562
0.484375,128.15289539940488,128.15289539940488,1650.0,1650.0,0.0,0.0,3218.373241836858,-1694275.6734542986,-106153.495323093,88412.48425598438,61971.14815998126,968319.0178575737,33800681818.87542,23855449698.634315,65536949.72151419
0.48828125,1244.2412451361865,1244.6440833142597,922.7008468757153,674.9301899748226,0.0,0.0,11119.93666012376,-1694894.1547970148,-109929.26679207,88806.29108570477,63032.21087359084,970485.4625131526,33755137938.945423,23830248548.7754,52935923.57936629
0.4921875,1650.0,1650.0,0.0,0.0,0.0,0.0,17840.496028545815,-1692593.8184691456,-102289.35716630853,88962.6421439757,64602.71281259322,972568.9041252043,33736074835.870102,23824501537.03972,44797804.5776427
0.49609375,947.2739757381551,947.6768139162278,358.2238498512245,651.1375600823987,0.0,0.0,22469.800646408567,-1689775.354337644,-84761.55557584777,88855.80551171734,66395.24868407803,973966.6807545798,33754943469.258827,23841696839.154865,43599640.31095719
0.5,0.0,0.0,1498.0796520943006,1634.6669718471044,0.0,0.0,24355.07528370642,-1688450.989092861,-61420.95511754819,88521.05332091117,68056.17861559418,974296.1740081683,33800681818.875404,23871833936.064667,49152712.291106544
0.50390625,0.0,0.0,1650.0,1650.0,0.0,0.0,23044.485027805455,-1689474.3201617745,-37901.005654906745,88045.10348761886,69269.82012854931,973541.4313209244,33846494108.310406,23897296513.915745,58937869.24947158
0.5078125,945.6626230258639,948.4824902723734,977.4868390936141,846.9420920119021,0.0,0.0,18271.9650769958,-1692344.4880413974,-19957.57719023505,87538.1253791922,69845.72310856686,972068.3767445339,33865603078.613487,23903162693.37301,69392843.67679615
0.51171875,1650.0,1650.0,0.0,0.0,0.0,0.0,10022.270767403797,-1695616.7478955227,-11957.129736729628,87096.24941650828,69761.46770801798,970500.490687395,33846766050.60357,23885907356.117043,77501219.7588041
0.515625,1020.2128633554589,1023.8384069581139,128.15289539940488,517.7729457541772,0.0,0.0,-1340.4221131496568,-1697708.2830439424,-15697.261675750733,86769.15355531828,69150.58601676935,969499.9454738651,33800681818.87539,23855449698.634308,81921187.15192185
0.51953125,0.0,0.0,1650.0,1650.0,0.0,0.0,-14947.154754748646,-1697736.542532475,-29892.21502764843,86546.81696704793,68244.93711916522,969534.7079540273,33753800216.28805,23829412014.861214,83158067.1078529
0.5234375,778.8876173037308,827.2030212863356,947.2739757381551,1003.293659876402,0.0,0.0,-29390.23771877829,-1696023.885987232,-50481.87193214828,86372.50720740136,67295.76573768843,970716.5997912594,33733283781.555866,23822973439.85895,82792171.40053044
0.52734375,1650.0,1650.0,0.0,0.0,0.0,0.0,-42849.80168106631,-1694045.2624186578,-71695.52904821798,86178.06575599786,66502.55333186538,972767.5973985196,33751797347.444473,23840203671.921494,82262282.82164805
0.53125,1181.7761501487755,1157.6058594644082,0.0,346.54154268711375,0.0,0.0,-53395.22119835903,-1693827.0078439934,-87585.76088226851,85927.1694865212,65972.52048689924,975123.0768762063,33800681818.875435,23871833936.06466,81921187.15192187
0.53515625,85.42687113756006,68.50766765850312,945.6626230258639,1504.1222247653925,0.0,0.0,-59405.449458283816,-1697033.1534798439,-93608.0401596682,85647.17617174413,65719.47461924063,977130.3080070429,33855113263.884922,23900655617.368015,80908709.47216707
0.5390625,0.0,0.0,1650.0,1650.0,0.0,0.0,-59993.90924219172,-1704111.3285335426,-87803.49868052792,85433.15616382008,65694.69481134137,978267.4251877499,33888008060.14937,23911346883.061684,77917675.12643659
0.54296875,630.1899748226139,706.3515678644998,1020.6157015335317,977.4868390936141,0.0,0.0,-55301.61510742624,-1713859.9659695749,-71254.63009500457,85418.22175213642,65831.12333075191,978304.1945372361,33884640229.03033,23899048886.502686,72408143.55619836
0.546875,1650.0,1650.0,5.664911879148575,0.0,0.0,0.0,-46548.34087185739,-1723624.912440033,-47695.62025215202,85718.45489775672,66079.4888577783,977351.3797161457,33849834531.16651,23871833936.06466,65536949.7215142
0.55078125,5.664911879148575,0.0,1244.6440833142597,1578.6724650949875,0.0,0.0,-35799.83818817119,-1730094.5262097458,-22406.83676332897,86372.88854358566,66421.52082459978,975789.3636969004,33804085230.28182,23845793637.80869,60178307.428321466
0.5546875,1380.4257267109178,1288.956282902266,0.0,128.15289539940488,0.0,0.0,-25497.301099165827,-1730428.6377924043,-730.5478174191041,87303.80458295917,66857.74010165753,974111.3812762355,33771320193.20316,23835713865.79122,59874229.340601295
0.55859375,231.30464637216753,151.1146715495537,779.2904554818036,1244.6440833142597,0.0,0.0,-17873.230323049214,-1723317.5843736094,13352.28797281129,88317.40528575498,67379.79823737603,972745.2944374498,33765601305.975826,23846752748.480682,67136769.78918679
0.5625,0.0,0.0,1650.0,1650.0,0.0,0.0,-14418.151231831289,-1709577.0084711695,18177.575883138616,89150.94254738907,67944.52971290189,971920.4417730055,33784297581.444996,23871833936.06465,81921187.15192185
0.56640625,658.3886472877089,647.5120164797436,1168.8853284504464,947.2739757381551,0.0,0.0,-15550.649738284807,-1692040.8614585055,14636.07396057962,89554.54979324294,68465.77971806124,971623.4213159422,33811216548.749565,23896085221.021145,101081374.35147749
0.5703125,1650.0,1650.0,78.17578393224994,0.0,0.0,0.0,-20582.377185861773,-1674762.7324177865,5671.565199056605,89381.10661081916,68831.34186841689,971649.152014912,33827315028.10214,23905592397.769424,119192459.39502259
0.57421875,1562.1560997940032,1495.6626230258637,0.0,0.0,0.0,0.0,-27980.288249716028,-1661783.9103412516,-4758.991828021867,88651.5578908787,68939.97801508552,971716.7359000642,33822362808.241394,23895342747.24901,130482633.16976064
0.578125,482.32318608377204,379.1714351110094,627.3701075761043,945.6626230258639,0.0,0.0,-35840.098490635704,-1655884.6851386747,-12912.576811956083,87569.14069629983,68743.0729158747,971597.761615556,33800681818.875427,23871833936.064663,131073899.44302844
0.58203125,0.0,0.0,1650.0,1650.0,0.0,0.0,-42426.33155626536,-1657745.5071867157,-16294.143240141068,86472.42833553422,68271.7624997786,971205.1800946844,33777826463.446487,23849002941.428684,120559295.59217949
0.5859375,679.3614099336232,676.5415426871136,1354.2412451361868,1020.6157015335317,0.0,0.0,-46622.939406360965,-1665803.0286129983,-14209.80472523426,85738.4068113767,67635.25751621528,970611.8230278995,33770502392.884533,23839997233.614708,102227668.92906417
0.58984375,1650.0,1650.0,202.27512016479739,5.664911879148575,0.0,0.0,-48175.32887595636,-1676844.068932843,-7727.842625187854,85665.29096631822,66987.73471449943,969999.0893747378,33785934951.04061,23849629352.334785,81846389.21560867
0.59375,1650.0,1650.0,0.0,0.0,0.0,0.0,-47674.69184207521,-1687125.348069785,867.9564678678557,86373.5491208613,66474.75217012112,969564.8208883208,33817066056.305775,23871833936.06465,65536949.7215142
0.59765625,723.2707713435569,678.1528953994048,654.360265506981,779.2904554818036,0.0,0.0,-46313.92730867163,-1693629.3218274815,8899.825344286062,87759.08605606784,66179.82864547921,969433.5645454935,33846386966.020893,23893455809.75214,57636506.68624416
0.6015625,0.0,0.0,1650.0,1650.0,0.0,0.0,-45505.66965379071,-1695028.2962238179,14104.486411432621,89515.95560746694,66093.23408186485,969607.5174780521,33856079981.189075,23902021152.51683,59381131.72993976
0.60546875,562.1103227283131,603.1998168917373,1534.7379262989243,1182.1789883268484,0.0,0.0,-46479.709004870885,-1692040.8030912,15188.047300032478,91222.96230727556,66117.15598838798,969975.8633646405,33838470299.94445,23892913012.450256,68832526.35257125
0.609375,1600.4257267109176,1618.1506065461203,439.59716182192716,85.42687113756006,0.0,0.0,-49965.505923965306,-1687082.7651961523,12008.638363177712,92467.08742810276,66107.11731041623,970373.6228195977,33800681818.875427,23871833936.06466,81921187.1519219
0.61328125,1650.0,1650.0,0.0,0.0,0.0,0.0,-56024.98263213913,-1683361.0462034869,5411.85972697822,92964.34520137409,65934.52139974562,970660.1688572683,33760833137.879314,23851257903.27372,94057555.35948247
0.6171875,0.0,0.0,1650.0,1650.0,0.0,0.0,-64049.17992956942,-1683741.2615611695,-3145.724278907804,92639.71330870589,65545.71148557101,970780.8035167102,33738032551.034126,23843068025.982452,101637846.2748346
0.62109375,410.18997482261386,435.5687800411993,1650.0,1398.1506065461203,0.0,0.0,-72888.5408929312,-1689782.538164142,-12010.1772599199,91641.70920970278,64993.132458399676,970784.3839324049,33741955654.709934,23851716728.886017,102947677.99583082
0.625,1541.6113527122911,1553.696498054475,676.9443808651864,228.88761730373082,0.0,0.0,-81063.3076786159,-1701253.055871311,-19642.21444234779,90289.00148772965,64424.402114475655,970790.9864430601,33767913344.01466,23871833936.064667,98305424.58232956
0.62890625,1650.0,1650.0,0.0,0.0,0.0,0.0,-87000.58902939183,-1716256.2206561437,-24774.843515829845,88968.50427815867,64031.553642748564,970926.3910192415,33800048540.643074,23891548754.101017,89599253.05351216
0.6328125,917.0611123826961,919.8809796292056,613.2707713435569,734.9530785076676,0.0,0.0,-89261.24828391352,-1731879.0543540465,-26454.528456214353,88019.19119448938,63978.920815100704,971254.7376752312,33820600770.627316,23899471244.10332,79524182.42253608
0.63671875,0.0,0.0,1583.5065232318607,1650.0,0.0,0.0,-86740.59722139825,-1745101.7515428404,-24056.234825152045,87638.6655780439,64337.49155002662,971740.9226505893,33819787294.657036,23891230979.561436,70800746.01743045
0.640625,222.4422064545663,231.30464637216753,1650.0,1588.3405813687343,0.0,0.0,-78840.1939933776,-1753639.7133367127,-17354.184529897928,87839.97180847275,65052.01064286092,972260.4285010191,33800681818.875427,23871833936.06465,65536949.72151423
0.64453125,1365.520714122225,1377.605859464408,841.3023575188829,524.2183566033418,0.0,0.0,-65607.77931101025,-1756444.5920060722,-6667.975149969585,88468.1459266372,65954.92250702585,972652.6877275634,33776532918.165707,23852602537.115475,64789760.52724831
0.6484375,1650.0,1650.0,0.0,0.0,0.0,0.0,-47830.54986936304,-1753740.5802010796,6978.326059231623,89266.17882922935,66822.99395652652,972794.3580876001,33762398084.789368,23844604436.29793,68351483.34886229
0.65234375,871.1123826962692,844.5250629434654,677.3472190432592,630.9956511787594,0.0,0.0,-27052.315662770754,-1746654.3681509625,21803.60733329014,89965.19501366185,67455.33344756212,972659.667888739,33766177754.1954,23852427573.41111,74808485.5494955
0.65625,960.97047379263,961.3733119707027,399.7161821927215,682.5841153582055,0.0,0.0,-5478.864493221422,-1736641.077908308,35440.12105138627,90368.32164837433,67742.48447073814,972340.2399229364,33784297581.445026,23871833936.064655,81921187.1519219
0.66015625,0.0,0.0,1511.7761501487755,1650.0,0.0,0.0,14253.521663124266,-1724961.6632749087,45371.690860201415,90402.86677630924,67699.21867095034,972014.190404451,33804398609.03338,23892480126.518745,87296779.01332965
0.6640625,35.474937056534706,35.474937056534706,1650.0,1650.0,0.0,0.0,29442.558441559897,-1712414.9723711603,49568.414728760086,90128.28554074932,67447.76037275966,971876.2635570017,33813215560.383987,23903945897.675613,89182563.19459835
0.66796875,1101.2085145342185,1101.6113527122911,985.9464408331424,764.7631036850538,0.0,0.0,37773.306675827356,-1699396.9869302488,47134.46179904449,89702.85041054687,67158.06610339234,972057.8063409701,33804819714.4878,23901484218.3075,87084851.73081848
0.671875,1650.0,1650.0,0.0,0.0,0.0,0.0,37777.569951999445,-1686207.5757030502,38730.61783000855,89324.48688466675,66969.56927283296,972570.161488441,33784297581.445004,23888218173.49507,81921187.15192182
0.67578125,940.8285648889906,941.2314030670634,197.44106202792398,522.2041657129778,0.0,0.0,29194.21483255209,-1673414.8987080948,26570.00146968335,89167.07189492321,66927.17468751353,973295.4912060706,33764726047.079823,23872707125.392998,75587274.38774396
0.6796875,0.0,0.0,1334.9050125886931,1579.8809796292057,0.0,0.0,13130.152983114873,-1662064.1596402165,13912.756757750522,89331.62464282243,66959.49420400965,974029.2117159747,33759298958.242172,23863543647.276855,70101553.49255571
0.68359375,0.0,0.0,1650.0,1650.0,0.0,0.0,-8043.387191540819,-1653589.3637946628,4163.555068095073,89824.08322889288,66910.78445844213,974556.5782244754,33773301995.125317,23864305504.238335,66729827.35681498
0.6875,858.6243991760127,859.0272373540855,959.7619592584116,922.7008468757153,0.0,0.0,-31066.453226119273,-1649423.5765065518,-161.50808497220436,90561.36527002066,66616.00796669004,974731.7376473121,33800681818.87542,23871833936.06466,65536949.72151419
0.69140625,1650.0,1650.0,0.0,0.0,0.0,0.0,-52377.97244862032,-1650447.6474815328,1748.4000992668423,91398.95127417611,65989.59246808216,974526.8238888365,33827228233.54874,23878712428.77522,65605928.13257512
0.6953125,1101.2085145342185,1101.6113527122911,30.23804074158852,358.2238498512245,0.0,0.0,-68797.88841250168,-1656508.4223034321,8702.875389747564,92168.8338559864,65090.598610735084,974031.7193123712,33838516463.08339,23878271145.248405,65797951.7553417
0.69921875,43.93453879606317,43.93453879606317,1091.9180590524147,1498.0796520943006,0.0,0.0,-78154.56954399735,-1666234.6869812536,17877.579226186466,92716.85364821559,64133.85550515359,973406.3656172927,33828010145.934597,23868967765.265617,65601598.524923846
0.703125,0.0,0.0,1650.0,1650.0,0.0,0.0,-79712.27865266205,-1677279.135020777,25757.89805549436,92931.85387580765,63436.22216277339,972807.8650082668,33800681818.875427,23855449698.634304,65536949.72151417
0.70703125,701.1146715495537,701.1146715495537,941.2314030670634,977.4868390936141,0.0,0.0,-74294.0509938149,-1686953.2666016035,29356.608303100274,92763.4485611329,63312.371121991295,972325.2928879083,33770148857.54176,23845674946.569916,66816579.37653597
0.7109375,1650.0,1650.0,0.0,0.0,0.0,0.0,-64063.543377776965,-1693060.9712299253,27284.41604139009,92228.46559216472,63955.71371472486,971951.4561078709,33751074985.76713,23845889290.37662,70410071.53743194
0.71484375,1265.1888303959718,1265.5916685740444,0.0,128.15289539940488,0.0,0.0,-52009.1660395175,-1694639.6530276074,20281.49331632043,91407.37439859289,65348.77898673889,971604.2140283354,33751260549.139507,23856566151.82437,76061851.68380277
0.71875,125.73586633096818,125.73586633096818,858.6243991760127,1244.6440833142597,0.0,0.0,-41245.72320290532,-1692326.7478213476,10993.79746871971,90431.68537974969,67239.50654445498,971187.4632639702,33767913344.01466,23871833936.064663,81921187.15192188
0.72265625,0.0,0.0,1650.0,1650.0,0.0,0.0,-34294.95912134909,-1688186.8541134098,3042.9041934273127,89462.7621633258,69197.72503320893,970663.1808649746,33790067316.886345,23882803305.628246,85156297.14935443
0.7265625,646.3035019455252,646.3035019455252,1101.6113527122911,947.2739757381551,0.0,0.0,-32514.701724337203,-1685021.731480942,-301.5911301738286,88663.07065956452,70737.35470026365,970099.3259676342,33805513083.449783,23882837419.231308,83368066.69331062
0.73046875,1650.0,1650.0,43.93453879606317,0.0,0.0,0.0,-35813.38426325653,-1685375.5979454305,2620.755016939135,88163.0980835172,71465.1635003812,969667.2464563436,33808034284.73688,23871605519.19816,76095986.57534765
0.734375,1495.6626230258637,1495.6626230258637,0.0,0.0,0.0,0.0,-42719.197300742315,-1690571.3013608595,11136.223419174226,88030.2650577306,71205.61730710007,969583.3460618374,33800681818.87542,23855449698.634304,65536949.7215142
0.73828125,379.1714351110094,379.1714351110094,701.1146715495537,946.0654612039367,0.0,0.0,-50786.42076140817,-1700121.1180340222,22330.1733736564,88248.42381498952,70058.11886279518,970014.6128029098,33793255117.658375,23843772945.3254,55921245.32081141
0.7421875,0.0,0.0,1650.0,1650.0,0.0,0.0,-57236.700493430086,-1711741.597342193,31957.77174108752,88716.17124980269,68365.71387167805,970985.7417980221,33795631972.380222,23843532119.815586,51679221.98386655
0.74609375,676.1387045090408,676.5415426871136,1265.5916685740444,1021.4213778896773,0.0,0.0,-59672.05233487768,-1722001.470671992,35875.04120543061,89268.2820069511,66605.12535988173,972328.9352606755,33811048908.170544,23855078627.649273,55230386.485058084
0.75,1650.0,1650.0,125.73586633096818,4.05355916685744,0.0,0.0,-56676.294051081706,-1727413.2928819368,31495.61796959242,89717.72325397766,65235.61797535779,973703.768944142,33833450293.736176,23871833936.064667,65536949.72151417
0.75390625,1650.0,1650.0,0.0,0.0,0.0,0.0,-48149.72294071505,-1725619.1205717493,18755.27159015329,89908.14226537781,64558.56563520708,974688.4488332968,33850603751.859337,23884049083.27551,78272324.85699663
0.7578125,677.750057221332,678.1528953994048,646.3035019455252,790.9727626459144,0.0,0.0,-35292.73049573866,-1716275.1134374037,229.92961985891603,89761.40983393723,64635.380265463005,974915.2676131449,33851250166.73524,23884488161.416443,87669037.7492269
0.76171875,0.0,0.0,1650.0,1650.0,0.0,0.0,-20249.7937846062,-1701327.3116112086,-19651.939845245368,89304.31800214539,65290.16821830141,974203.4285114637,33832125914.415897,23872715622.183586,89222989.03849459
0.765625,603.1998168917373,603.1998168917373,1495.6626230258637,1183.7903410391395,0.0,0.0,-5519.616241758113,-1684563.346717239,-36040.220524724784,88663.82142236743,66192.92834103701,972639.8475735924,33800681818.87542,23855449698.6343,81921187.15192185
0.76953125,1617.7477683680477,1618.1506065461203,379.1714351110094,82.20416571297778,0.0,0.0,6697.490248483325,-1670558.9038206558,-45243.53850132097,88030.0096575431,66990.51216974025,970574.822273519,33771742376.790863,23842725353.342445,68831301.40934376
0.7734375,1650.0,1650.0,0.0,0.0,0.0,0.0,15028.129674166943,-1663335.76028203,-45909.207863539705,87597.08918561725,67436.37928558399,968528.9987751276,33759811069.02213,23842063866.96275,55691293.21190431
0.77734375,844.5250629434654,844.5250629434654,676.5415426871136,676.1387045090408,0.0,0.0,19183.637154062784,-1665145.0028572485,-39393.787015779286,87500.99208727387,67472.18239088236,967040.0308624299,33771247794.34478,23854036848.805347,48166252.99010406
0.78125,0.0,0.0,1650.0,1650.0,0.0,0.0,19885.93927645404,-1675753.5311299288,-29203.397712651436,87774.47946170844,67233.3929530552,966499.6959689757,33800681818.875435,23871833936.064663,49152712.29110655
0.78515625,441.23369192034784,441.6365300984206,1650.0,1386.0654612039368,0.0,0.0,18504.78932097741,-1692456.9653168728,-19713.954193891048,88335.51917365225,66980.14519899512,967036.4847007409,33833699563.489857,23885134766.96542,57511582.90254104
0.7890625,1538.3634699015793,1538.3634699015793,678.1528953994048,247.8210116731517,0.0,0.0,16540.043506837064,-1710818.8345660614,-14635.103413548022,89013.74195896782,66982.29849542334,968483.0548478768,33854377241.49041,23886080543.006706,68875704.26041755
0.79296875,1650.0,1650.0,0.0,0.0,0.0,0.0,15128.564099978135,-1725916.1742510998,-15765.985676999377,89606.66176331503,67404.0445798267,970438.1576805436,33853565043.235,23873894761.13373,78083508.82243365
0.796875,992.4170290684367,995.6397344930189,603.1998168917373,662.4422064545663,0.0,0.0,14740.471977375591,-1733723.6354329176,-22476.11557578233,89946.7920539259,68232.33089603912,972399.7113871734,33833450293.73619,23855449698.634308,81921187.15192185
0.80078125,1379.2172121766991,1427.9606317235064,844.5250629434654,521.8013275349051,0.0,0.0,15157.77822900302,-1732234.8834566053,-32074.204134401833,89956.71234537115,69275.6736503944,973921.707097444,33806013274.483543,23841396877.213474,80689842.7736229
0.8046875,0.0,0.0,1618.1506065461203,1650.0,0.0,0.0,15723.939982861732,-1722006.8143089083,-40902.084753934214,89673.15226079825,70232.59157761278,974741.1815246999,33786347072.306213,23840044027.29349,77756247.29695195
0.80859375,1650.0,1650.0,0.0,0.0,0.0,0.0,15752.27211085818,-1705987.2558362926,-45730.24788114947,89231.92084362746,70802.42704848353,974834.4817860009,33784566341.59661,23852488527.71017,77359002.24563012
0.8125,961.3733119707027,974.2641336690317,441.6365300984206,680.9727626459144,0.0,0.0,14921.152291707285,-1688693.908558144,-44931.10512029096,88819.17650165864,70795.74633344173,974389.1103794933,33800681818.875397,23871833936.06466,81921187.15192187
0.81640625,0.0,0.0,1538.7663080796522,1650.0,0.0,0.0,13488.031666988985,-1674989.3085040178,-39001.15913857598,88606.18755284965,70202.53089844406,973708.1212050389,33825070050.82222,23887001388.25413,90419931.54333712
0.8203125,35.474937056534706,128.15289539940488,1650.0,1650.0,0.0,0.0,12223.218300493627,-1668795.21003966,-30256.119088909163,88690.20756608524,69193.27899721413,973086.8962521206,33844053219.741226,23889018937.034817,98799480.06670944
0.82421875,1101.2085145342185,1244.6440833142597,992.4170290684367,736.161593041886,0.0,0.0,12074.8729387174,-1672088.4102945428,-21837.715648627614,89061.51494483021,68054.17694137314,972709.0847184927,33847371012.882774,23876231507.567818,102277910.08673215
0.828125,940.8285648889906,947.2739757381551,231.30464637216753,600.7827878233005,0.0,0.0,13688.47934615126,-1684427.3709657222,-16429.374241057707,89607.13769097986,67082.54218762134,972597.7570652298,33833450293.736183,23855449698.634304,98305424.58232953
0.83203125,1650.0,1650.0,0.0,0.0,0.0,0.0,16974.35339000368,-1703108.0020640437,-15183.808923183535,90148.89834858883,66483.20904344931,972634.3871197895,33809757608.939777,23838327754.359978,88494612.18814775
0.8359375,231.30464637216753,276.01968413824665,1650.0,1588.3405813687343,0.0,0.0,20915.92061339195,-1723882.5157104093,-17280.478019309106,90501.87126892968,66305.06491437533,972631.6795981554,33788301431.40648,23834946197.921013,78327084.55954078
0.83984375,0.0,0.0,1379.6200503547723,1618.1506065461203,0.0,0.0,23735.090293350175,-1742040.1674854516,-20287.792804867397,90533.17206359518,66440.41107900339,972426.7971292498,33778955529.966995,23848156449.2249,74613002.270546
0.84375,0.0,0.0,1650.0,1650.0,0.0,0.0,23402.994688705206,-1753572.80031859,-21195.882756038653,90202.0862454562,66684.87687096975,971956.247983779,33784297581.444996,23871833936.064667,81921187.15192185
0.84765625,1650.0,1650.0,0.0,0.0,0.0,0.0,18349.57181534763,-1756142.8814925945,-17726.662606191545,89570.04083377197,66832.0709080881,971283.7879273053,33798631465.493702,23894019774.609756,99832280.43434946
0.8515625,1082.6527809567406,1020.6157015335317,35.474937056534706,437.1801327534905,0.0,0.0,8134.248325732294,-1749630.9690462558,-9415.837137851544,88779.70732478224,66764.13630252855,970573.3499214001,33811463936.472168,23903230495.264595,122530817.94404127
0.85546875,33.86358434424358,5.664911879148575,1101.6113527122911,1541.2085145342185,0.0,0.0,-6170.531548395488,-1736144.2282610894,1961.750141568153,88012.51215540423,66501.80776524366,970021.5456232461,33813318857.136654,23894489946.47036,141094816.4057663
0.859375,0.0,0.0,1650.0,1650.0,0.0,0.0,-22051.596641570566,-1719492.3662165015,12814.555098916202,87439.57744872868,66194.2958968854,969779.6841614628,33800681818.875427,23871833936.064663,147458136.87343612
0.86328125,714.8111696040284,779.2904554818036,941.2314030670634,992.4170290684367,0.0,0.0,-36105.48134251557,-1704256.2213616918,18884.884403529722,87181.07131106337,66053.63550603633,969897.7799827827,33777567051.132515,23846017303.964157,138137123.42273033
0.8671875,859.4300755321583,945.6626230258639,961.3733119707027,879.9999999999999,0.0,0.0,-44925.31899751368,-1694664.6800501875,16737.611684069536,87283.88734171628,66260.41916530846,970312.3062264811,33753170478.319057,23828785949.68458,115898313.73087871
0.87109375,1650.0,1650.0,0.0,0.0,0.0,0.0,-46058.820903144064,-1693540.7188653192,5065.763385186483,87720.0729602122,66879.34913906798,970880.4239628912,33737151175.577034,23826893783.374256,88559700.61990519
0.875,1230.9475852597848,1182.1789883268484,0.0,231.30464637216753,0.0,0.0,-38734.524553364354,-1701567.5567870452,-14653.53123609502,88401.65963757028,67819.30166669942,971444.1299657883,33735144869.15392,23839065461.203922,65536949.7215142
0.87890625,105.97161821927216,85.42687113756006,860.6385900663768,1379.6200503547723,0.0,0.0,-24118.94473022652,-1717060.36266755,-38398.740205597154,89203.9384943807,68855.11508237841,971896.048782329,33746692156.17916,23857373194.97181,53833682.4488356
0.8828125,0.0,0.0,1650.0,1650.0,0.0,0.0,-5015.8366953284585,-1736317.387626909,-60678.701873716556,89989.52144325295,69703.96411462205,972218.9379133482,33766250920.908737,23872026353.20092,55379967.53886936
0.88671875,637.8439002059966,631.3984893568322,1057.6768139162277,961.3733119707027,0.0,0.0,14899.604443462404,-1754487.5364145706,-76098.2131882681,90628.67525215997,70127.51165515039,972482.8424200453,33786303518.60615,23876760078.537357,66865796.25383186
0.890625,1650.0,1650.0,24.19546807049664,0.0,0.0,0.0,32067.128188869887,-1766759.1937976158,-80908.13586551722,91015.22495024111,70020.52356060587,972802.0495860608,33800681818.875412,23871833936.064655,81921187.15192185
0.89453125,293.34172579537653,244.19546807049664,701.9203479056993,1101.6113527122911,0.0,0.0,43935.53715477169,-1769581.3174234354,-74046.83730242151,91079.61125944727,69451.42158613165,973270.9603803052,33806491122.760708,23863143995.457397,94353177.79033938
0.8984375,0.0,0.0,1650.0,1650.0,0.0,0.0,49490.674146533005,-1761601.432177501,-57358.67925046931,90800.34963716543,68638.51035784268,973906.8199174979,33804096063.171093,23858206958.93504,100745618.00148748
0.90234375,664.4563973449302,662.4422064545663,1203.5294117647056,941.2314030670634,0.0,0.0,49275.636620143225,-1744061.0082533185,-34953.109243301704,90212.66317396853,67870.28672944805,974624.4873509576,33795788009.159637,23861494503.265354,101228281.06664382
0.90625,1650.0,1650.0,86.63538567177841,0.0,0.0,0.0,44939.237004287694,-1720520.0638469853,-11946.117832687116,89410.24898000556,67399.77449203492,975255.3630612546,33784297581.445034,23871833936.06467,98305424.58232956
0.91015625,1595.5916685740444,1588.7434195468072,0.0,0.0,0.0,0.0,38507.9214203243,-1695959.8243243871,6989.958353621391,88535.16266662582,67352.88793274004,975604.6123290999,33772029032.559498,23883276241.589066,94681937.48433723
0.9140625,538.7205310139619,522.2041657129778,632.2041657129778,858.6243991760127,0.0,0.0,31660.278372262605,-1675487.6901020873,18809.36259364138,87753.0513636037,67685.51525941254,975525.1695944769,33761105541.74905,23888776737.604492,91470615.84939536
0.91796875,0.0,0.0,1650.0,1650.0,0.0,0.0,25263.163977567532,-1662990.773975234,22670.071646164924,87216.18546508045,68205.36668458227,974979.8588599302,33753637507.34595,23884439099.5107,87799975.9120556
0.921875,667.2762645914396,682.5841153582055,1392.5108720531016,1101.6113527122911,0.0,0.0,19314.208146975274,-1660112.4900089446,19789.760361341778,87022.96519584842,68649.8330288688,974067.0422500157,33751529106.584255,23871833936.06466,81921187.15192187
0.92578125,1646.3492790112155,1650.0,244.19546807049664,43.93453879606317,0.0,0.0,13271.721389287117,-1665846.4649364261,12708.296537444608,87186.87395248668,68789.69355122719,972998.7920298913,33755646491.36676,23857104038.680046,72989377.66326211
0.9296875,1650.0,1650.0,0.0,0.0,0.0,0.0,6602.42814428461,-1676871.6057141204,4264.034050047219,87627.61889874405,68518.72232123764,972038.3115602644,33764870399.587265,23847466901.412346,62302484.40402884
0.93359375,1429.5719844357975,1392.5108720531016,0.0,35.474937056534706,0.0,0.0,-703.0181504171244,-1688539.231654153,-3348.332765621379,88191.48312756173,67894.81454616849,971418.3910996547,33775893778.327663,23847204087.968006,53132027.846000575
0.9375,763.5545891508353,765.1659418631266,662.4422064545663,701.1146715495537,0.0,0.0,-7877.328159347176,-1696231.4496833982,-9139.239350460657,88698.0916331828,67117.01981759765,971269.4699514835,33784297581.444996,23855449698.634315,49152712.29110653
0.94140625,0.0,0.0,1650.0,1650.0,0.0,0.0,-13506.497749487986,-1696699.1152294304,-13368.52205750171,89000.29850092961,66447.59632240544,971582.0871731531,33786611543.84773,23866972112.04628,52351591.776964605
0.9453125,1650.0,1650.0,0.0,0.0,0.0,0.0,-16003.778274881017,-1688993.7437654366,-17128.05752841682,89036.9935626971,66109.3831178466,972215.8778759303,33782283764.192486,23875376229.115982,61657532.551769555
0.94921875,1579.478141451133,1579.8809796292057,523.8155184252689,125.73586633096818,0.0,0.0,-14245.135426946788,-1674730.1822617906,-21671.276766386993,88858.65849067911,66198.30055130049,972950.7464626336,33774309723.156612,23876781391.27893,73163161.41499165
0.953125,922.2980086976426,922.7008468757153,656.3744563973448,646.3035019455252,0.0,0.0,-8110.682139263381,-1657618.0466559948,-27763.29506591554,88613.39813026808,66644.99607540885,973561.5429544237,33767913344.014668,23871833936.064655,81921187.15192184
0.95703125,0.0,0.0,1642.3208972304874,1650.0,0.0,0.0,1295.9998181011124,-1642416.7378461354,-35289.451807871505,88494.76385835033,67240.78744601739,973890.4501898554,33767807487.237225,23864966969.788235,84392912.97967955
0.9609375,358.2238498512245,358.2238498512245,1650.0,1495.6626230258637,0.0,0.0,11860.31481790261,-1633633.2806096533,-43245.68094270545,88667.27225684702,67718.34749694192,973893.4163047945,33775508190.26222,23861468932.122536,80227297.08190797
0.96484375,521.8013275349051,522.2041657129778,1587.132066834516,1265.5916685740444,0.0,0.0,21045.968045745172,-1634343.9776749774,-50088.611507963644,89195.52595793425,67856.47229145098,973646.9501191351,33788309937.25676,23864185950.867855,72387692.92618224
0.96875,1497.6768139162282,1498.0796520943006,762.7489127946898,379.1714351110094,0.0,0.0,26658.78792425791,-1645463.8722811171,-54299.370817886185,90003.95749193765,67568.83112701974,973315.39139135,33800681818.875427,23871833936.06466,65536949.72151419
0.97265625,1650.0,1650.0,0.0,0.0,0.0,0.0,27509.9880516811,-1665635.2533206625,-54952.1528433066,90885.21958903917,66942.40943873713,973091.3769500821,33807450313.798267,23879879031.077885,63543358.25755217
0.9765625,977.0840009155413,977.4868390936141,521.3984893568321,676.5415426871136,0.0,0.0,23735.373851092016,-1691711.3115395114,-52090.97483841542,91558.72212174228,66210.2150101582,973129.5894682892,33807001286.639957,23883389664.20304,67450374.06854974
0.98046875,0.0,0.0,1579.478141451133,1650.0,0.0,0.0,16652.670989830745,-1719638.4171576048,-46793.20553210724,91762.43116893264,65667.57521320137,973494.21221456,33802571589.54046,23880100294.799004,74996317.85747115
0.984375,128.15289539940488,128.15289539940488,1650.0,1650.0,0.0,0.0,8212.317971177963,-1745444.226531457,-40905.10892876386,91347.5634563211,65562.65508228693,974134.6360274712,33800681818.875412,23871833936.064663,81921187.15192182
0.98828125,1244.2412451361865,1244.6440833142597,922.7008468757153,677.750057221332,0.0,0.0,252.04476853836292,-1766043.9750306867,-36535.84467418006,90342.56902713118,66001.66597766707,974894.6114300475,33807383378.584637,23863440847.48595,84327805.16642714
0.9921875,1650.0,1650.0,0.0,0.0,0.0,0.0,-6157.537416610615,-1779672.9777473218,-35462.38755214086,88961.5991031151,66903.96370947304,975550.5792132433,33824338449.33579,23859906523.05279,80806660.73522662
0.99609375,947.2739757381551,947.2739757381551,358.2238498512245,603.1998168917373,0.0,0.0,-11021.389507289094,-1785898.635771028,-38614.34358116844,87550.90952732522,68023.900463158,975868.0479574495,33847012584.958042,23863369881.649666,73186308.61929868
1.0,0.0,0.0,1498.0796520943006,1618.1506065461203,0.0,0.0,-15259.0218967249,-1785305.5619135106,-45777.06569011775,86488.1361104753,69031.81506065461,975661.8600747698,33866218768.596947,23871833936.06469,65536949.72151428
1.00390625,0.0,0.0,1650.0,1650.0,0.0,0.0,-20132.968390272767,-1779034.9376681373,-55588.546951119126,86066.43803063719,69625.06049873438,974846.7445920801,33872436683.643143,23880334325.866573,62002534.260448314
1.0078125,945.6626230258639,945.6626230258639,977.4868390936141,844.5250629434654,0.0,0.0,-26490.710573484652,-1768369.5070357777,-65830.12758420582,86401.83867710596,69629.38530993366,973467.5267369959,33860740051.04578,23883868551.089542,64646368.018883534
1.01171875,1020.6157015335317,1020.6157015335317,128.15289539940488,441.6365300984206,0.0,0.0,-34127.96034870044,-1754494.8741869316,-73941.40767016199,87395.13179103499,69055.04447692749,971702.4855515064,33833708976.166737,23880348792.91119,72446597.73752101
1.015625,1650.0,1650.0,0.0,0.0,0.0,0.0,-41549.70124659541,-1738467.956749379,-77638.98190014817,88761.6666040157,68088.95607538428,969837.8578276087,33800681818.87542,23871833936.06468,81921187.15192191
1.01953125,5.664911879148575,5.664911879148575,1244.6440833142597,1538.3634699015793,0.0,0.0,-46266.5418823042,-1721328.075521318,-75494.04731290067,90119.43237507781,67027.5403758626,968216.2180094842,33773611240.240658,23863318048.26441,88977573.18846138
1.0234375,0.0,0.0,1650.0,1650.0,0.0,0.0,-45566.20356397718,-1704232.597192726,-67328.59056361143,91106.19861014518,66175.85865112768,967166.4692525526,33761597075.40022,23859794269.54215,90959284.71017373
1.02734375,778.8876173037308,779.2904554818036,947.2739757381551,994.0283817807278,0.0,0.0,-37514.909886504225,-1688504.3311631575,-54323.70207328083,91486.98108965211,65749.67318266717,966928.1309340665,33766879895.93066,23863324345.917233,87823996.55276117
1.03125,1182.1789883268484,1182.1789883268484,0.0,255.87777523460747,0.0,0.0,-21839.75554594568,-1675533.5184349571,-38793.30625163205,91217.08543816184,65814.34993159989,967586.4115303053,33784297581.44505,23871833936.06469,81921187.15192193
1.03515625,1650.0,1650.0,0.0,0.0,0.0,0.0,-361.4037497493891,-1666554.5616572236,-23654.110377089884,90441.86774793499,66279.59263455734,969035.5006076569,33804360821.27151,23880334815.233997,76615713.99176477
1.0390625,85.42687113756006,85.42687113756006,945.6626230258639,1406.2073701075758,0.0,0.0,23215.98150984426,-1662381.0349992344,-11703.412867094336,89436.3342187434,66947.80825156448,970983.9677842702,33818206112.245564,23883850534.728485,74584071.83131722
1.04296875,0.0,0.0,1650.0,1650.0,0.0,0.0,44139.36248087854,-1663204.868281575,-4880.522781964957,88507.88310652477,67594.56759069726,973007.5513917268,33821769327.256805,23880328171.950863,76689682.59664409
1.046875,630.9956511787594,631.3984893568322,1020.6157015335317,968.6243991760128,0.0,0.0,57835.282867698996,-1668539.3745920819,-3713.4697111085543,87896.80295101955,68049.2691674453,974642.2265279819,33817066056.305798,23871833936.064682,81921187.1519219
1.05078125,1650.0,1650.0,5.664911879148575,0.0,0.0,0.0,61161.548729339986,-1677325.2851311124,-7124.772145548444,87707.89842199952,68246.22793553353,975497.470800049,33810129326.99432,23863339582.35716,88236881.70158471
1.0546875,1392.1080338750287,1392.5108720531016,0.0,87.03822384985119,0.0,0.0,53293.459197488475,-1688153.1081513097,-12686.194248448435,87893.78194657741,68229.63950263537,975360.4478175148,33806991461.58508,23859815031.482258,93686611.02728973
1.05859375,244.19546807049664,244.19546807049664,779.2904554818036,1181.3733119707026,0.0,0.0,35966.79543111294,-1699514.1414674907,-17288.882040683126,88291.06221453032,68114.68777197323,974260.3843912845,33810085526.914043,23863327059.120728,97138445.85533065
1.0625,0.0,0.0,1650.0,1650.0,0.0,0.0,13002.450503623197,-1709994.1624932722,-18065.20188414726,88692.12982653605,68024.01109742615,972470.6524044145,33817066056.305767,23871833936.064667,98305424.58232957
1.06640625,662.0393682764935,662.4422064545663,1182.1789883268484,947.2739757381551,0.0,0.0,-10736.231353780859,-1718365.7007922535,-13303.621219819745,88924.11634426525,68027.34698418262,970442.697997059,33822570944.35393,23880373427.638767,97280715.72679472
1.0703125,1650.0,1650.0,85.42687113756006,0.0,0.0,0.0,-30628.14326250673,-1723595.3013259582,-3074.472905108677,88906.46873957566,68109.41326711052,968686.4569476972,33821739903.512047,23883949132.230984,94104855.87920147
1.07421875,1587.9377431906614,1588.3405813687343,0.0,0.0,0.0,0.0,-43430.403970325606,-1724830.6150235033,10650.593166573495,88668.77690012398,68178.44682346459,967629.7183739592,33813343603.294487,23880437795.646797,88804249.5456554
1.078125,522.2041657129778,522.2041657129778,625.3559166857405,942.8427557793545,0.0,0.0,-47937.179847035884,-1721442.9872218105,24460.80425767055,88326.5660783071,68110.61812817554,967497.6966961123,33800681818.875427,23871833936.06467,81921187.15192193
1.08203125,682.5841153582055,680.1670862897688,1346.184481574731,1095.5436026550697,0.0,0.0,-44998.578068355964,-1713166.4666323434,34446.38709052749,88028.34388494372,67810.73470806818,968250.0481333727,33789762597.319553,23863114387.137573,75093356.35560407
1.0859375,1650.0,1650.0,171.65941863126577,37.89196612497141,0.0,0.0,-36947.85741069503,-1700308.1342867939,37353.50100018073,87896.4903145506,67263.09818634849,969596.1208801138,33785869383.59136,23859379055.751072,71067385.68952563
1.08984375,1650.0,1650.0,0.0,0.0,0.0,0.0,-26670.22216900351,-1683938.6437838313,31606.39210667348,87984.58104003659,66550.56807420233,971085.152113512,33790536765.503967,23862910810.72889,72803971.0445113
1.09375,764.7631036850538,726.4934767681392,662.0393682764935,785.3330281528953,0.0,0.0,-16645.503678589652,-1665940.6409032505,17873.34914359639,88265.1839474072,65832.99285073519,972244.1872996215,33800681818.875427,23871833936.064682,81921187.15192191
1.09765625,0.0,0.0,1650.0,1650.0,0.0,0.0,-8281.143223872661,-1648818.4356813794,-1015.7960705847149,88649.06229161024,65292.85366760125,972720.8179696994,33810365281.74233,23881126724.340244,97272244.06511734
1.1015625,520.9956511787593,599.1714351110093,1586.7292286564432,1219.6681162737468,0.0,0.0,-1731.640589844418,-1635252.7930825711,-20793.608483933232,89024.54152783556,65069.50598798211,972385.9902998267,33814140777.536568,23885400350.291645,114592099.83210556
1.10546875,1580.6866559853515,1620.97047379263,519.787136644541,109.19432364385443,0.0,0.0,3779.0527206546717,-1627491.8783991537,-36910.47347672238,89299.2702422773,65208.35856347564,971365.0647799519,33810065580.885223,23881866085.374622,127718360.60376558
1.109375,1650.0,1650.0,0.0,0.0,0.0,0.0,9292.015862772882,-1626758.9609440814,-45773.22329819065,89427.84453439464,65645.67756693167,969988.8214651231,33800681818.87544,23871833936.06468,131073899.4430285
1.11328125,909.810025177386,844.5250629434654,681.3756008239873,636.2325474937055,0.0,0.0,15378.408585363622,-1632886.9126505624,-45692.91561309524,89416.58607517247,66235.63755211243,968682.269458574,33791466801.682983,23859944640.795265,122327067.40070899
1.1171875,0.0,0.0,1650.0,1650.0,0.0,0.0,21624.37032420438,-1644336.9549367914,-37264.32777546824,89307.36307598712,66809.30229774961,967829.0122679535,33787689634.9953,23851624606.83208,103876885.65595037
1.12109375,0.0,0.0,1650.0,1650.0,0.0,0.0,26540.50744723976,-1658635.0829006804,-23086.016989578795,89151.01980189605,67242.13177486506,967655.8028409431,33791473575.346172,23850228180.916122,82256896.61931908
1.125,366.68345159075307,441.6365300984206,1650.0,1415.47264820325,0.0,0.0,27947.31647682524,-1673106.2090309355,-6941.519573206267,88984.15569409562,67502.64972406608,968173.6379787676,33800681818.87542,23855449698.63434,65536949.72151426
1.12890625,1650.0,1650.0,0.0,0.0,0.0,0.0,23718.449777451267,-1685662.4910104645,7273.540171313144,88819.6803405111,67661.8148123948,969191.4666737851,33810162656.122086,23863809582.08345,59835341.232636616
1.1328125,980.7095445181964,992.4170290684367,521.3984893568321,662.8450446326391,0.0,0.0,12634.569179044825,-1695361.8528922505,16532.347544336342,88653.68110004233,67857.91668328427,970393.6373837022,33814558760.6593,23870818399.0256,66581030.438999236
1.13671875,0.0,0.0,1582.7008468757151,1650.0,0.0,0.0,-4946.684698635478,-1702520.1971809163,19278.977605695036,88482.55724335775,68229.64273672081,971451.3625968499,33811068805.641567,23873500758.188885,81875150.32596499
1.140625,159.9771114671549,231.30464637216753,1650.0,1588.3405813687343,0.0,0.0,-26849.987120099,-1708319.6612870074,15518.515527530986,88319.17495081115,68843.39834913437,972128.8013627079,33800681818.875427,23871833936.06467,98305424.5823296
1.14453125,1285.7335774776836,1379.6200503547723,889.6681162737467,522.2041657129778,0.0,0.0,-49387.23902801216,-1714050.4559994165,6450.368384845078,88197.42563009023,69644.62996978684,972348.7208526093,33787355364.355774,23868364346.03137,108360415.49431291
1.1484375,1650.0,1650.0,0.0,0.0,0.0,0.0,-68156.36990031219,-1720280.68236722,-6147.844989678912,88160.74050755218,70455.0611071282,972198.8745079781,33775785175.773663,23866363451.03447,107794498.1956768
1.15234375,953.7193865873198,961.3733119707027,362.2522316319524,682.5841153582055,0.0,0.0,-79127.22491056894,-1726301.1500770554,-20517.004176462797,88238.92395552984,71021.04359896661,971881.9062862104,33769128005.617393,23867717396.42946,97328250.3933572
1.15625,0.0,0.0,1495.6626230258637,1650.0,0.0,0.0,-79712.74073387851,-1730110.6035300377,-35272.60690021356,88424.8747610932,71098.73733299469,971630.7981641408,33767913344.014675,23871833936.064682,81921187.15192191
1.16015625,0.0,35.474937056534706,1650.0,1650.0,0.0,0.0,-69517.09657454093,-1729011.7161853232,-49431.20399042447,88664.69328334059,70546.85588549764,971621.988618572,33770551180.616547,23876172061.195793,68083053.60815719
1.1640625,1501.3023575188831,1538.7663080796522,749.4552529182879,274.40833142595557,0.0,0.0,-50536.37925034662,-1720647.2189909199,-62177.395283969265,88869.92398707586,69393.03556264877,971916.3458344941,33774856881.41575,23877985145.231323,60656615.716909744
1.16796875,1022.6298924238956,1101.6113527122911,978.2925154497597,765.1659418631266,0.0,0.0,-26737.163464441674,-1704109.7465995892,-72561.31406377646,88950.89385794388,67847.58314400693,972445.7746688233,33779475838.421,23876136699.410942,60710919.96208933
1.171875,1650.0,1650.0,0.0,0.0,0.0,0.0,-3111.2833616377748,-1680689.222679439,-79346.66900587143,88859.3948310344,66255.980964615,973045.6533323794,33784297581.44502,23871833936.064686,65536949.72151423
1.17578125,968.6243991760128,941.2314030670634,139.83520256351574,522.2041657129778,0.0,0.0,15548.130666389487,-1653915.8761718436,-81157.15935573807,88622.2372573137,65002.925945229705,973517.3108679778,33789723959.30061,23867822537.164165,70596938.05116357
1.1796875,0.0,0.0,1259.9519340810255,1579.8809796292057,0.0,0.0,25824.906587706453,-1628792.4997223546,-76924.00591146355,88348.05068962231,64398.20733539289,973696.0132679531,33795473828.001747,23866560122.33272,72258980.42445582
1.18359375,0.0,0.0,1650.0,1650.0,0.0,0.0,26498.2442911617,-1610407.1684678786,-66479.9911393014,88198.6847977605,64582.016991491866,973500.9012379928,33799932725.659927,23868536348.828663,69788010.22951245
1.1875,837.2739757381552,858.6243991760127,950.4966811627376,922.7008468757153,0.0,0.0,18784.34444301935,-1602368.3615215516,-51043.31601489672,88330.70775495443,65481.562356811446,972952.6350828755,33800681818.875427,23871833936.064674,65536949.72151425
1.19140625,1650.0,1650.0,0.0,0.0,0.0,0.0,5941.427953098259,-1605609.3033595271,-33335.117455577376,88826.31281254448,66833.96409137946,972157.7548421713,33796011302.039013,23873267047.625935,63311068.95566608
1.1953125,1114.9050125886931,1101.6113527122911,0.0,358.2238498512245,0.0,0.0,-7648.26473712963,-1618016.9140808496,-17185.12207897031,89640.50813549322,68268.19720588867,971270.4983837536,33786481264.538956,23870448152.590595,65893317.79739551
1.19921875,48.365758754863805,43.93453879606317,988.3634699015794,1498.0796520943006,0.0,0.0,-17664.49077679215,-1635073.4219005967,-6663.878650915635,90588.89173645721,69419.0159030671,970448.747251301,33775433366.540726,23863522056.516212,73167069.7909127
1.203125,0.0,0.0,1650.0,1650.0,0.0,0.0,-20978.148746453062,-1651343.3898355637,-4969.298940739369,91387.52354520232,70035.2847377923,969819.3696210476,33767913344.01466,23855449698.63433,81921187.15192191
1.20703125,697.4891279468985,701.1146715495537,940.8285648889906,977.4868390936141,0.0,0.0,-16419.866840265775,-1662322.0277998797,-13416.130834263862,91737.47271629464,70047.53473427352,969461.116618197,33768417533.186024,23850558041.732708,87475308.90324363
1.2109375,1650.0,1650.0,0.0,0.0,0.0,0.0,-4990.437976728602,-1666001.8048934452,-30878.491779606575,91428.44369357963,69573.94219310433,969404.2078194015,33778642964.79211,23852112848.76354,86246203.79853633
1.21484375,1265.994506752117,1265.5916685740444,0.0,128.15289539940488,0.0,0.0,10524.130373679616,-1663581.2830005302,-53909.77129706327,90425.65858151736,68865.17879388864,969639.019677103,33796511435.574196,23860300358.13254,77845155.5435206
1.21875,125.3330281528954,125.73586633096818,816.7544060425727,1244.6440833142597,0.0,0.0,26402.01488196604,-1659020.6828118048,-77550.5291239458,88906.55095114108,68209.25081777059,970124.6286375839,33817066056.305775,23871833936.06469,65536949.72151423
1.22265625,646.3035019455252,646.3035019455252,1104.8340581368734,947.2739757381551,0.0,0.0,39041.444964593655,-1657551.538946107,-96606.77285334525,87228.93706578514,67830.38251619194,970791.5590624125,33834783713.837177,23881508391.05603,54767257.10077224
1.2265625,1650.0,1650.0,42.72602426184482,0.0,0.0,0.0,45915.97903047666,-1663632.1090401197,-107018.85121895369,85835.44332393739,67816.8611481725,971539.6371930802,33846034438.87888,23884910568.365814,50499828.273621045
1.23046875,1495.6626230258637,1495.6626230258637,0.0,0.0,0.0,0.0,46164.43345893417,-1679065.3960028715,-106903.62179369784,85122.02101275696,68101.49475969854,972237.7012074558,33850343711.857662,23880802616.922928,54741600.650375284
1.234375,379.1714351110094,379.1714351110094,683.3897917143511,945.6626230258639,0.0,0.0,40670.05211363366,-1701973.9190395614,-96954.31964562665,85312.86414355348,68499.12293968536,972733.792483217,33849834531.166553,23871833936.06468,65536949.72151425
1.23828125,0.0,0.0,1650.0,1650.0,0.0,0.0,31641.937480251298,-1727052.222162186,-80089.25405630407,86384.19959687043,68785.35149866136,972881.0016525164,33847318309.993126,23863145886.78601,77942339.49086164
1.2421875,676.1387045090408,676.5415426871136,1268.0086976424811,1020.6157015335317,0.0,0.0,21859.541704275285,-1747082.4890740863,-60481.00149459547,88064.50200293193,68786.48286493195,972576.5983146754,33844308076.26377,23859604336.85309,86465775.64142853
1.24609375,1650.0,1650.0,124.12451361867703,5.664911879148575,0.0,0.0,13832.408634797954,-1755250.2029789167,-42290.08916371563,89913.458197202,68447.35597864562,971803.7651349086,33840246736.69746,23863167805.572994,87714751.3159846
1.25,1650.0,1650.0,0.0,0.0,0.0,0.0,9135.42496071483,-1747494.8117363225,-28507.5396744269,91455.15553068825,67852.44131495093,970660.1734530458,33833450293.736183,23871833936.06469,81921187.15192191
1.25390625,677.750057221332,678.1528953994048,646.3035019455252,779.2904554818036,0.0,0.0,8105.17294615872,-1724086.609494398,-20255.71466734415,92322.02985754545,67192.82194340073,969358.6549842111,33823133871.83923,23880737824.978027,72622626.55279967
1.2578125,0.0,0.0,1650.0,1650.0,0.0,0.0,9953.316830535498,-1689858.436419099,-16730.622367247,92361.99046578087,66691.41152501176,968192.767725553,33811115995.772926,23884790012.46432,64737644.1664686
1.26171875,0.0,0.0,1650.0,1650.0,0.0,0.0,13213.582910979876,-1652963.1011399978,-15752.313310074245,91673.54201507033,66513.93364364064,967471.7695619066,33801887816.540634,23881403703.292694,62073103.313473515
1.265625,602.7969787136644,603.1998168917373,1495.6626230258637,1182.1789883268484,0.0,0.0,16336.985846213538,-1622524.4655130068,-14698.2940771426,90558.43517507339,66698.5137607317,967441.1100769367,33800681818.87544,23871833936.064667,65536949.72151423
1.26953125,1617.7477683680477,1618.1506065461203,379.1714351110094,85.42687113756006,0.0,0.0,18218.268136143914,-1605929.9135771927,-11490.21892495896,89409.72590298632,67130.41128997452,968211.4848342686,33810443063.184814,23860439682.995808,72907077.35605396
1.2734375,1650.0,1650.0,0.0,0.0,0.0,0.0,18482.199030455893,-1606641.3536232067,-5314.811717400274,88575.08015914337,67572.70824287554,969718.8007426924,33829432103.726105,23852330394.821617,80173794.29883656
1.27734375,844.5250629434654,844.5250629434654,676.5415426871136,630.9956511787594,0.0,0.0,17460.936584168714,-1623234.2212704693,3127.0335360537606,88242.96540896535,67744.16141875264,971728.9207147758,33851032740.183254,23850723956.59805,83678742.65008652
1.28125,0.0,0.0,1650.0,1650.0,0.0,0.0,15912.941107198181,-1649965.8261552225,11880.4439774705,88390.3398221883,67418.69678813712,973887.5685831015,33866218768.596947,23855449698.634323,81921187.15192193
1.28515625,441.23369192034784,441.6365300984206,1650.0,1392.5108720531016,0.0,0.0,14625.211773398947,-1678666.2529433148,18380.54186480403,88807.94442374508,66512.90901236732,975801.9516874448,33867645716.66554,23863341244.9405,76146921.70486423
1.2890625,1537.9606317235066,1538.7663080796522,678.1528953994048,244.19546807049664,0.0,0.0,14071.253539493933,-1701311.6722963336,20250.19573773281,89191.4879222589,65131.17471257833,977131.2793907076,33853321031.475216,23870190244.607742,69513309.348801
1.29296875,1650.0,1650.0,0.0,0.0,0.0,0.0,14258.607002037405,-1712428.94117767,16002.417794549583,89263.87992884815,63551.47940324887,977661.5069896373,33827881314.552547,23873088104.578293,65360923.57147213
1.296875,992.4170290684367,992.4170290684367,603.1998168917373,662.4422064545663,0.0,0.0,14810.31089541686,-1710560.6065808835,5458.925408782252,88883.40969968309,62154.25765808299,977345.5990728172,33800681818.87544,23871833936.064667,65536949.72151423
1.30078125,0.0,0.0,1618.1506065461203,1650.0,0.0,0.0,15222.00602478466,-1698357.6692972605,-10195.181935919345,88098.84249820391,61315.07782638411,976301.8767882544,33781567413.239265,23868689164.276566,69618174.99343231
1.3046875,231.30464637216753,231.30464637216753,1650.0,1588.3405813687343,0.0,0.0,15162.604450725225,-1681341.6118504847,-28687.72897571281,87132.3498656257,61293.80897754721,974775.3843866604,33776435480.9186,23866740035.664867,75358214.27103667
1.30859375,1379.2172121766991,1379.6200503547723,844.5250629434654,522.2041657129778,0.0,0.0,14671.31274279642,-1665820.6841113071,-47153.52531667887,86297.59456395569,62154.24315861419,973076.4736418037,33784824188.072643,23867913159.483204,80032890.0657413
1.3125,1650.0,1650.0,0.0,0.0,0.0,0.0,14152.926101380635,-1656706.6793754771,-62703.57264709332,85883.55826701854,63738.7461678942,971514.3378644942,33800681818.87542,23871833936.064686,81921187.15192193
1.31640625,0.0,0.0,1538.3634699015793,1650.0,0.0,0.0,14165.845274492662,-1655973.7316279055,-72944.39501897417,86046.54685627761,65705.57708956822,970340.8369794338,33815780946.95123,23876164380.87241,81143790.8019201
1.3203125,961.3733119707027,961.3733119707027,441.6365300984206,682.9869535362784,0.0,0.0,15094.172891388269,-1662241.8468358458,-76366.70544780052,86749.2259660855,67617.5691131059,969713.672325926,33823866561.25649,23878152607.25333,79463572.97727497
1.32421875,35.474937056534706,35.474937056534706,1650.0,1650.0,0.0,0.0,16855.039299667642,-1671555.2480225747,-72568.69346211203,87768.1471604276,69055.87354688282,969680.9454395431,33823323454.97151,23876411565.984196,79209250.985882
1.328125,1101.2085145342185,1101.6113527122911,992.4170290684367,762.7489127946898,0.0,0.0,18788.076692039147,-1679009.5973025023,-62309.66800983393,88766.5558986131,69725.92788099173,970184.1644561834,33817066056.305775,23871833936.06467,81921187.15192193
1.33203125,1650.0,1650.0,0.0,0.0,0.0,0.0,19804.812192520847,-1680608.2656231956,-47401.163400559206,89406.30119273394,69526.36298895878,971075.1038546457,33809957755.486465,23867093064.249348,87426856.79171559
1.3359375,940.8285648889906,942.037079423209,231.30464637216753,576.2096589608607,0.0,0.0,18767.94851808719,-1674685.149158771,-30444.352910417016,89459.52002406184,68563.63066549391,972142.9267547115,33805440782.618107,23865040910.66275,93804049.77325296
1.33984375,0.0,0.0,1379.6200503547723,1603.2455939574274,0.0,0.0,14967.539785846418,-1662423.2940634924,-14429.399663835231,88881.83178064527,67111.57435860141,973149.650338544,33803427933.956844,23866976710.905327,98232333.47504398
1.34375,0.0,0.0,1650.0,1650.0,0.0,0.0,8506.400532083298,-1647344.5923682973,-2234.1419508962804,87823.23266930552,65530.75050478897,973872.2480339005,33800681818.875427,23871833936.06467,98305424.58232957
1.34765625,858.6243991760127,874.3350881208514,961.3733119707027,927.1320668345159,0.0,0.0,426.26599867868254,-1634014.866445109,3905.719917835564,86575.16924127752,64172.42400891496,974147.4332025128,33793381312.971405,23876780912.118668,93179988.40820208
1.3515625,1650.0,1650.0,0.0,0.0,0.0,0.0,-7504.279724374788,-1626468.113327045,2849.5017964809676,85474.245272575,63294.22381826963,973911.2545400809,33780243407.32173,23878885236.33182,84042047.33770983
1.35546875,1101.6113527122911,1104.4312199588007,35.474937056534706,431.13756008239875,0.0,0.0,-13291.670828168313,-1626917.3531498509,-5189.171150174986,84796.9455145095,63008.55005833761,973222.3880097697,33764209323.43728,23876856804.177155,73704458.29919267
1.359375,43.93453879606317,37.89196612497141,1101.6113527122911,1544.8340581368732,0.0,0.0,-15344.55360499049,-1635176.6364853773,-18666.55073222154,84681.07559012716,63273.49894875334,972258.1816540532,33751529106.584267,23871833936.06468,65536949.72151425
1.36328125,1650.0,1650.0,0.0,0.0,0.0,0.0,-13004.156900671367,-1648934.0101470463,-35040.053271252385,85098.42117371118,63923.259595632735,971277.7645636798,33748613832.34295,23866739672.23851,62198571.81472949
1.3671875,0.0,0.0,1650.0,1650.0,0.0,0.0,-6781.923303630901,-1664701.2032745297,-51341.21634188113,85883.96140725249,64724.61962659351,970556.2993160377,33758379628.513603,23864577791.830616,64689760.177178286
1.37109375,1265.1888303959718,1222.890821698329,0.0,231.30464637216753,0.0,0.0,1788.3279953708304,-1679039.039498438,-64843.62611405987,86806.99601808109,65441.14952488761,970305.7194904832,33778190788.69096,23866664441.404423,72073074.07760246
1.375,701.1146715495537,763.5545891508353,941.2314030670634,992.4170290684367,0.0,0.0,10634.225518234029,-1689595.4006370644,-73638.46966984757,87655.87679307992,65887.60390366134,970605.5327696141,33800681818.875435,23871833936.06469,81921187.15192191
1.37890625,125.73586633096818,107.98580910963608,859.0272373540855,1379.6200503547723,0.0,0.0,17788.751555981442,-1695606.4385093483,-76951.34384337626,88305.19779812975,65962.87615381546,971368.2813364493,33817154875.11293,23877091673.66724,91266301.45280927
1.3828125,0.0,0.0,1650.0,1650.0,0.0,0.0,21957.988074928577,-1697746.6372960994,-75115.2197290553,88742.73935320806,65657.91247198723,972356.0958529622,33821800383.758293,23879343949.575615,97654605.45636347
1.38671875,644.6921492332342,634.2183566033417,1096.7521171892881,961.3733119707027,0.0,0.0,22807.667656990176,-1697472.0615659533,-69230.39603243166,89049.57885031926,65042.43917772664,973249.0159763395,33814495445.39013,23877205270.881832,99903644.3596488
1.390625,1650.0,1650.0,41.51750972762647,0.0,0.0,0.0,20875.792121288763,-1696183.3093539053,-60651.16359072783,89344.41499541662,64238.967695047264,973747.3183353862,33800681818.875427,23871833936.064674,98305424.5823296
1.39453125,1477.1320668345159,1392.5108720531016,0.0,35.8777752346075,0.0,0.0,17168.611213238135,-1694575.1324677635,-50498.619756226886,89715.89870926377,63393.43272740042,973675.7391853064,33788401013.780922,23866304050.364265,94249130.94212273
1.3984375,355.40398260471505,244.19546807049664,700.7118333714809,1101.2085145342185,0.0,0.0,12625.128101535267,-1692431.5270088399,-39384.144328021284,90170.27186253671,62649.551456266134,973053.2376421307,33784093596.227234,23863863220.79712,89465688.82783566
1.40234375,0.0,0.0,1650.0,1650.0,0.0,0.0,7688.247610732705,-1688919.5841393215,-27441.094678678233,90615.02663588483,62130.147356250745,972100.6241058586,33789409233.801567,23866064591.803158,85237910.5954096
1.40625,672.5131609063859,662.4422064545663,1249.0753032730602,948.8853284504463,0.0,0.0,2174.723172981275,-1683219.336557058,-14634.681619980665,90885.37998621819,61925.12394343669,971178.0901555542,33800681818.875435,23871833936.064686,81921187.15192191
1.41015625,1642.3208972304874,1588.3405813687343,0.0,0.0,0.0,0.0,-4493.127518213618,-1675187.2982556731,-1200.919159259043,90804.34296114898,62083.88781028045,970669.1104658665,33811245569.108658,23878000441.511154,78976983.18138663
1.4140625,632.6070038910506,522.2041657129778,635.42687113756,859.4300755321583,0.0,0.0,-12792.750881656315,-1665741.6777370195,11996.838119380758,90254.79304779696,62610.23162348471,970847.6611576625,33815232283.15208,23880993070.58463,75487231.23379038
1.41796875,0.0,0.0,1650.0,1650.0,0.0,0.0,-22570.413093027022,-1656777.2871562839,23383.142640197646,89237.44721069875,63459.40663362304,971774.3096670958,33810739451.063766,23878756350.816486,70887670.9020288
1.421875,627.3701075761043,682.5841153582055,1405.4016937514305,1101.6113527122911,0.0,0.0,-32738.591446759092,-1650616.3977457508,30944.8950982759,87893.29825462918,64539.09900508997,973259.443998312,33800681818.875427,23871833936.06468,65536949.72151425
1.42578125,1631.444266422522,1650.0,249.02952620737017,43.93453879606317,0.0,0.0,-41392.11171323644,-1649196.977376956,32807.29782510029,86481.0322241454,65716.9851571327,974910.3623798953,33790965707.538853,23863053265.67463,60793625.406817846
1.4296875,1650.0,1650.0,0.0,0.0,0.0,0.0,-46369.69429777306,-1653313.7393648361,27921.0419116353,85314.92239634025,66836.7271154301,976250.1856159096,33787097374.85912,23856031501.00581,58497293.79933355
1.43359375,797.418173495079,764.7631036850538,666.8734264133668,701.1146715495537,0.0,0.0,-46095.07979575618,-1662215.716194012,16603.648164143407,84681.62039209179,67741.7990675117,976870.6920951831,33791142649.824368,23853359117.911385,60050992.59739484
1.4375,0.0,0.0,1650.0,1650.0,0.0,0.0,-40387.534858299514,-1673732.3481501422,706.7880823047263,84760.99104005276,68303.35293046926,976567.7409640881,33800681818.875427,23855449698.634335,65536949.72151423
1.44140625,488.76859693293653,522.2041657129778,1607.6768139162282,1265.5916685740444,0.0,0.0,-30898.45451979931,-1684900.8509845666,-16700.012866074754,85574.75208538515,68445.80080625699,975412.3074671157,33810249086.564262,23860617984.472267,73338756.6053221
1.4453125,1650.0,1650.0,115.26207370107578,0.0,0.0,0.0,-20932.4618530773,-1692878.7102412027,-32071.472952057422,86977.97272591412,68163.12997382057,973731.3389071347,33814382512.51712,23866229680.867012,80545880.0023861
1.44921875,1564.57312886244,1579.8809796292057,569.7642481116959,125.73586633096818,0.0,0.0,-14619.883501787523,-1695818.924822331,-42341.24661027545,88695.50292288253,67520.71237351502,972003.4902244334,33810590967.649258,23870179926.30796,84054694.46231294
1.453125,1650.0,1650.0,0.0,0.0,0.0,0.0,-15651.005297219228,-1693401.2389568072,-45790.66723985315,90392.32036827395,66641.13948197397,970704.4325029555,33800681818.875427,23871833936.06467,81921187.15192191
1.45703125,938.008697642481,922.7008468757153,611.256580453193,646.3035019455252,0.0,0.0,-25970.66273219766,-1686841.7758323487,-42550.723323164486,91757.5074036936,65677.20766015668,970154.1754305197,33789850123.167656,23871951892.15436,74347658.06763259
1.4609375,331.2336919203479,358.2238498512245,1650.0,1495.6626230258637,0.0,0.0,-44888.97827989055,-1678394.9793372615,-34572.41493493529,92578.59175549327,64779.0276936117,970418.1947023476,33784131451.671783,23871767464.09164,63804108.740200266
1.46484375,1473.103685053788,1498.4824902723735,761.1375600823987,379.1714351110094,0.0,0.0,-68959.35380415467,-1670542.2510925853,-25073.759727653112,92786.74723309334,64063.980024975375,971295.2238788508,33787600852.39051,23871898174.94979,54158827.989911646
1.46875,0.0,0.0,1628.624399176013,1650.0,0.0,0.0,-92735.60372533862,-1665164.3906687922,-17640.134132446095,92462.3217934987,63597.254573908525,972394.1315425747,33800681818.875427,23871833936.064686,49152712.29110658
1.47265625,1650.0,1650.0,0.0,0.0,0.0,0.0,-110224.95382047295,-1662984.9237460191,-15259.048721967958,91801.46947910373,63387.33269398517,973271.3363693274,33820208058.777184,23870348031.155403,50874186.052904084
1.4765625,975.8754863813228,977.4868390936141,469.8352025635156,676.5415426871136,0.0,0.0,-116605.4480371519,-1663457.5119595558,-19576.28274995689,91055.04297661019,63396.15466147766,973579.8543723843,33840931592.51394,23866558693.79284,58910663.574139625
1.48046875,0.0,0.0,1552.890821698329,1650.0,0.0,0.0,-109665.5225946524,-1665100.4312082455,-30570.039666865636,90457.62850673812,63559.433816816265,973178.5088820024,33857538983.96969,23860923198.468998,70549660.67496522
1.484375,128.15289539940488,128.15289539940488,1650.0,1650.0,0.0,0.0,-90494.62409602298,-1666120.9916608306,-46690.91806458331,90166.15728526484,63810.01862936461,972165.6567493889,33866218768.59694,23855449698.634335,81921187.1519219
1.48828125,1244.2412451361865,1244.6440833142597,915.0469214923323,678.1528953994048,0.0,0.0,-63187.822121618636,-1665081.7927902604,-65365.00215333867,90223.86511800249,64097.092694268984,970829.8320404572,33865316676.898743,23852871582.099216,89548317.85190172
1.4921875,1650.0,1650.0,0.0,0.0,0.0,0.0,-33647.21732981044,-1661368.3096369766,-83659.19729284369,90557.78478372359,64396.17651045292,969539.4397286244,33855229257.120846,23855173543.44834,91612196.06325412
1.49609375,947.2739757381551,947.2739757381551,305.42687113756006,603.1998168917373,0.0,0.0,-7859.627464646506,-1655313.5934408538,-98892.41217869663,91008.62454710173,64708.415035494654,968614.1252317704,33838013137.124332,23862299359.712147,88413151.14384024
1.5,0.0,0.0,1440.876630807965,1618.1506065461203,0.0,0.0,9798.799148140959,-1647977.5725871595,-109039.6168773863,91383.28111235017,65051.18228862999,968224.4954139229,33817066056.30576,23871833936.064682,81921187.15192191
1.50390625,945.6626230258639,945.6626230258639,973.0556191348135,844.5250629434654,0.0,0.0,17694.069261734207,-1640707.6170138845,-112883.96521885194,91514.51769220493,65444.41925702356,968353.6141589972,33796839706.71129,23879940827.10455,74739669.34520316
1.5078125,1650.0,1650.0,0.0,0.0,0.0,0.0,17158.571536264575,-1634674.5852016993,-109976.00211647787,91310.87549039665,65897.70679206747,968828.8057125256,33782239002.80014,23883135494.791416,69037921.5018976
1.51171875,0.0,0.0,1650.0,1650.0,0.0,0.0,11770.820302596285,-1630563.1113015336,-100515.66120552548,90782.96599009243,66401.95206177612,969405.6439468528,33777437957.51846,23879985182.013943,65938637.13818915
1.515625,1020.6157015335317,1020.6157015335317,112.03936827649352,441.6365300984206,0.0,0.0,5966.226256215582,-1628509.6264672475,-85263.35333835574,90039.06508613851,66927.43221891086,969867.7801883522,33784297581.44501,23871833936.064682,65536949.72151423
1.51953125,5.664911879148575,5.664911879148575,1220.0709544518197,1538.7663080796522,0.0,0.0,3466.8892958096008,-1628267.0902925322,-65522.81576833584,89251.61273365737,67427.74479700574,970103.0526991576,33801095653.83097,23862159770.542553,67366825.12578169
1.5234375,0.0,0.0,1650.0,1650.0,0.0,0.0,6060.352590674926,-1629481.5410375334,-43156.7239007211,88604.50336610684,67847.75242211806,970128.6551871875,33822451793.77121,23854899018.474842,70920515.09526928
1.52734375,778.8876173037308,779.2904554818036,947.2739757381551,992.4170290684367,0.0,0.0,13118.880933446188,-1631930.6248158878,-20539.951484392648,88236.66261228448,68133.2064104321,970060.4517494552,33840916957.417465,23852615358.753128,75873412.44991396
1.53125,1650.0,1650.0,0.0,0.0,0.0,0.0,21984.927229024208,-1635609.4831731913,-355.7968178125803,88198.7127296697,68240.18376277057,970044.5017119234,33849834531.16654,23855449698.63433,81921187.15192191
1.53515625,1182.1789883268484,1182.1789883268484,0.0,231.30464637216753,0.0,0.0,29050.275668111568,-1640635.3358062922,14798.517357419352,88436.0217172897,68143.21865113369,970183.233477339,33846246424.26119,23861338943.022385,88429766.8200867
1.5390625,85.02403295948726,85.42687113756006,945.6626230258639,1379.6200503547723,0.0,0.0,31129.02089056207,-1647037.9168258503,22934.67132399237,88803.93823447915,67841.48036482505,970488.9580190846,33832353157.1584,23867297248.666477,94245098.0687821
1.54296875,0.0,0.0,1650.0,1650.0,0.0,0.0,26642.79190536343,-1654564.3045551802,23175.067467626854,89111.56055584236,67362.27746755455,970883.9039418687,33814604840.652973,23871003809.94026,97915939.40889078
1.546875,630.9956511787594,631.3984893568322,1020.6157015335317,961.3733119707027,0.0,0.0,16221.848324652045,-1662625.054201844,16050.163492578433,89181.68123823733,66760.74000388298,971244.6886690921,33800681818.875427,23871833936.064686,98305424.58232957
1.55078125,244.19546807049664,244.19546807049664,779.2904554818036,1101.6113527122911,0.0,0.0,2540.765655826625,-1670443.391098102,3449.6322397263452,88909.21851295888,66114.29067561943,971469.2291402012,33795798675.44037,23870843243.077023,95277833.19299781
1.5546875,0.0,0.0,1650.0,1650.0,0.0,0.0,-10527.509498187654,-1677368.5205694744,-11805.675447679436,88300.23611818503,65511.051343100575,971533.9991453367,33800245943.178154,23869834032.157658,90031291.97301395
1.55859375,1650.0,1650.0,85.42687113756006,0.0,0.0,0.0,-19133.099504493217,-1683222.6598757443,-26667.807101891965,87478.83850904624,65032.90558700168,971513.5744919644,33809524869.695866,23870135273.26137,84791760.91348769
1.5625,1587.9377431906614,1588.3405813687343,0.0,0.0,0.0,0.0,-20632.9079550174,-1688511.9153095903,-38629.42691179456,86658.44314225702,64736.23585941088,971550.9514406968,33817066056.305767,23871833936.06468,81921187.1519219
1.56640625,1650.0,1650.0,5.664911879148575,0.0,0.0,0.0,-14360.051204980335,-1694365.848235438,-46307.53748189447,86084.51699536595,64635.49671939471,971789.2576252487,33818076175.913383,23873867963.30025,82835949.3225528
1.5703125,662.0393682764935,662.4422064545663,1182.1789883268484,941.6342412451362,0.0,0.0,-1760.3859726308374,-1702170.9653533706,-49653.50129812655,85964.6436703727,64695.64656807822,972293.7943702928,33812353658.396248,23874845750.079075,87279726.1830807
1.57421875,522.2041657129778,522.2041657129778,631.3984893568322,866.2783245593957,0.0,0.0,14105.310008098533,-1712992.3125509932,-49732.4374150868,86406.04211405023,64838.168055523085,972999.8396930445,33804406295.177563,23874026838.523537,93350014.14044547
1.578125,1392.1080338750287,1392.5108720531016,0.0,35.474937056534706,0.0,0.0,29495.497583420292,-1726983.141354752,-48172.6347043721,87378.99509190749,64961.83291389733,973713.035842441,33800681818.87544,23871833936.064686,98305424.5823296
1.58203125,0.0,0.0,1650.0,1650.0,0.0,0.0,41042.746987018945,-1743019.364234276,-46505.604005983994,88717.46433338792,64974.360670131915,974168.4404369508,33805395380.70336,23869589370.826862,99778218.60847591
1.5859375,682.5841153582055,682.5841153582055,1392.5108720531016,1102.8198672465096,0.0,0.0,46608.18389457567,-1758741.9403366707,-45650.55125097843,90157.56483332977,64826.35218350268,974129.5724690509,33817354379.382393,23868667920.70719,96802601.74222253
1.58984375,1650.0,1650.0,244.19546807049664,41.51750972762647,0.0,0.0,45710.40312433933,-1771059.4486210267,-45728.33073180691,91403.69520068185,64536.288098015146,973490.1656109773,33829768843.904648,23869621005.418705,90163218.73165812
1.59375,1650.0,1650.0,0.0,0.0,0.0,0.0,39457.94745830419,-1776998.7886830366,-46246.06186250405,92204.20535431748,64196.41913568939,972336.8982786878,33833450293.7362,23871833936.06468,81921187.15192193
1.59765625,764.7631036850538,765.1659418631266,662.4422064545663,726.4934767681392,0.0,0.0,30069.52511483478,-1774653.4681516343,-46533.51449338419,92415.83876140122,63954.32107649989,970943.7151846242,33821877634.09259,23873930971.85967,74396271.04736736
1.6015625,0.0,0.0,1650.0,1650.0,0.0,0.0,20172.429992631136,-1763919.1396263144,-46203.77333328283,92039.50937364556,63972.55189291283,969693.413155361,33795417558.625572,23874663343.937405,69146797.6386846
1.60546875,521.8013275349051,522.2041657129778,1588.3405813687343,1262.3689631494622,0.0,0.0,12101.268179006898,-1746751.422628156,-45401.82601355983,91218.1681117474,64376.816526434064,968950.5671005838,33762244075.51054,23873704813.297485,66456543.07093554
1.609375,922.2980086976426,922.7008468757153,682.5841153582055,646.3035019455252,0.0,0.0,7379.385943698832,-1726821.1337230862,-44703.09566781492,90198.08168411229,65208.44210907434,968930.5123020988,33735144869.15392,23871833936.06468,65536949.72151426
1.61328125,0.0,0.0,1650.0,1650.0,0.0,0.0,6480.797042434661,-1708632.2898150897,-44691.16381492806,89264.69208432811,66397.50149877484,969613.4769064948,33725592502.738663,23870371382.45133,65256633.88538058
1.6171875,358.2238498512245,376.3515678644999,1650.0,1495.6626230258637,0.0,0.0,8876.953900309063,-1696345.225186194,-45409.58103083125,88670.60550829551,67767.82366595969,970738.6234807121,33738016893.479355,23870224088.237507,64938084.25391868
1.62109375,1498.0796520943006,1509.7619592584115,765.1659418631266,379.1714351110094,0.0,0.0,13301.174886487473,-1692650.7082083502,-45972.39762875612,88574.57267675352,69075.59913711576,971884.4656609594,33767264027.787117,23871161691.275208,64757403.034570344
1.625,1650.0,1650.0,0.0,0.0,0.0,0.0,18129.37479990638,-1698035.1281407843,-44584.97327589424,89006.49970482514,70072.25868415528,972610.1992056869,33800681818.875435,23871833936.064686,65536949.72151423
1.62890625,977.0840009155413,987.9606317235066,522.2041657129778,673.7216754406043,0.0,0.0,21777.03268167449,-1710662.3137047593,-39073.093878176755,89865.94086485365,70573.51233084776,972608.9713808527,33823918088.6092,23870587932.73626,68080121.40745145
1.6328125,1579.8809796292057,1579.8809796292057,522.2041657129778,127.34721904325932,0.0,0.0,23035.297004456344,-1726911.1341591538,-27798.669327125343,90952.4764770813,70513.1287560922,971818.1712302205,33827586363.81318,23866628343.50602,72457411.14040129
1.63671875,1650.0,1650.0,0.0,0.0,0.0,0.0,21297.505002550395,-1742409.7739141462,-10641.70942716947,92018.38210712958,69963.74500566036,970446.1502358044,33811484057.137657,23860801061.32459,77672989.00664353
1.640625,0.0,0.0,1579.8809796292057,1650.0,0.0,0.0,16650.73262592311,-1753260.346113569,10362.216120745601,92829.05923816322,69116.86939712892,968904.4421745318,33784297581.445026,23855449698.634327,81921187.15192194
1.64453125,128.15289539940488,229.69329365987642,1650.0,1649.5719844357977,0.0,0.0,9824.118963953928,-1757096.3064663077,31071.621552655462,93215.84367128045,68227.19637462219,967668.7240506762,33759045420.90976,23853316813.323647,83315714.32380246
1.6484375,1244.2412451361865,1377.2030212863356,922.7008468757153,636.6353856717784,0.0,0.0,2002.2514925459723,-1753673.0777743761,46100.77773144227,93108.90792206943,67538.06912947948,967117.7698864278,33746669909.176422,23856041904.262688,80725967.64353773
1.65234375,1650.0,1650.0,0.0,0.0,0.0,0.0,-5466.103887080974,-1744837.8396454416,50321.425693487836,92543.91170356811,67211.33183940192,967407.7430416085,33751057813.809055,23863099686.814735,74313928.93845432
1.65625,948.4824902723734,961.3733119707027,358.2238498512245,682.5841153582055,0.0,0.0,-11406.132250703722,-1733909.9223105053,40564.43725967691,91643.11413552976,67283.55629377071,968426.2379715238,33767913344.014683,23871833936.06468,65536949.72151426
1.66015625,0.0,0.0,1498.0796520943006,1650.0,0.0,0.0,-15119.633971904412,-1724671.3566482842,16948.35285309472,90578.00511692409,67661.98126522276,969841.2668348247,33787814764.917747,23878658043.152863,56653718.04599298
1.6640625,0.0,35.474937056534706,1650.0,1650.0,0.0,0.0,-16562.3751733543,-1720269.245749904,-16672.95038133593,89524.62362676016,68160.34995688025,971225.7419285453,33801596816.82733,23880833535.120403,49986961.177225076
1.66796875,962.1789883268483,1101.6113527122911,977.4868390936141,800.6408789196613,0.0,0.0,-16327.852072939873,-1722341.9622280651,-53394.761081435136,88623.72598748849,68561.69474008952,972210.8101965304,33805080505.829742,23877880177.249546,47251623.22123631
1.671875,1650.0,1650.0,0.0,0.0,0.0,0.0,-15421.859214533464,-1730602.6982773668,-84961.17896107888,87955.7542671258,68686.56989706734,972611.705570559,33800681818.875427,23871833936.064682,49152712.291106574
1.67578125,1005.3078507667658,941.2314030670634,128.15289539940488,518.5786221103227,0.0,0.0,-14883.396241729297,-1742974.88571599,-104008.34692984553,87535.81532342806,68444.24077983691,972481.0492831225,33795241252.8817,23866178872.185257,55287269.0112809
1.6796875,0.0,0.0,1244.6440833142597,1581.8951705195695,0.0,0.0,-15372.149907192808,-1756217.4812292603,-106166.73230174185,87327.90605886784,67851.17196959651,972072.3222732274,33795504610.808575,23864005211.70272,64267059.58052699
1.68359375,0.0,0.0,1650.0,1650.0,0.0,0.0,-16872.80039697398,-1766848.170786941,-91349.22558790796,87272.02348141643,67013.26607301433,971729.9703343676,33803910710.31423,23866382645.54482,73972569.29598597
1.6875,796.6124971389335,859.0272373540855,947.2739757381551,927.5349050125886,0.0,0.0,-18642.5501522218,-1772102.0829129715,-63793.03888096703,87314.13850212506,66081.23107172959,971749.5710193107,33817066056.305782,23871833936.064682,81921187.1519219
1.69140625,1650.0,1650.0,0.0,0.0,0.0,0.0,-19450.846942565586,-1770666.7660872368,-30818.333277547412,87428.39300748998,65197.4680778392,972261.6733015273,33827709799.359108,23877197710.069386,85786944.04358286
1.6953125,68.10482948043033,43.93453879606317,948.0796520943006,1498.4824902723735,0.0,0.0,-18052.263503954226,-1763004.8950098224,-682.4803138596999,87623.60613762004,64454.72586662816,973182.7494487931,33828998264.714333,23879406687.60107,84063504.35810705
1.69921875,656.7772945754176,701.1146715495537,981.9180590524147,977.4868390936141,0.0,0.0,-13734.229188286117,-1751191.9716190845,19796.87622598558,87931.58200483225,63880.917683863365,974250.3366510182,33818661091.257973,23877201496.793945,76717814.17849132
1.703125,1650.0,1650.0,0.0,0.0,0.0,0.0,-6732.045011700604,-1738325.5894923948,27106.084559497474,88381.24408409066,63453.310055850045,975127.1203784196,33800681818.87544,23871833936.064674,65536949.72151425
1.70703125,1322.0141908903638,1265.5916685740444,0.0,128.15289539940488,0.0,0.0,1669.5436939873825,-1727673.1084674965,21820.295811525157,88968.21510740035,63133.17433571644,975532.7604624423,33783543558.16645,23866370783.09299,53861019.16766703
1.7109375,175.28496223392085,125.73586633096818,777.2762645914397,1244.6440833142597,0.0,0.0,9427.748596566757,-1721789.6121800398,8104.739389164638,89632.13984893875,62903.70409936467,975352.4240785675,33775965517.248158,23863982006.355816,45596654.30827922
1.71484375,1650.0,1650.0,55.214007782101135,0.0,0.0,0.0,14362.13564592748,-1721842.9989284961,-7849.622498130404,90252.59738876199,62792.84291186206,974680.7423305273,33782403031.80286,23866157399.27866,43762922.85516315
1.71875,650.3318837262532,646.3035019455252,1127.3929961089493,947.2739757381551,0.0,0.0,14906.610482683589,-1727327.2402522727,-19901.907111355093,90668.93071441745,62869.17182672994,973785.2242373031,33800681818.875435,23871833936.06468,49152712.291106604
1.72265625,0.0,0.0,1650.0,1650.0,0.0,0.0,10725.70383151042,-1736241.5969574465,-23856.079933942376,90721.21701887771,63210.68879932301,973004.1566870052,33822973947.246166,23877913914.701332,59783013.43439171
1.7265625,0.0,0.0,1650.0,1650.0,0.0,0.0,2954.602079521798,-1745687.9205673502,-18581.799576595382,90301.47580684388,63858.570775677275,972618.7932050755,33839562752.714607,23880891878.920795,71541483.61709376
1.73046875,1151.9661249713895,1101.6113527122911,0.0,357.418173495079,0.0,0.0,-6056.637563940844,-1752721.8341338553,-6061.761767838948,89398.93581552077,64775.86711331307,972748.8444131424,33843440222.578102,23878707974.895504,79890539.61963445
1.734375,1510.5676356145573,1495.6626230258637,0.0,0.0,0.0,0.0,-13438.645401155454,-1755218.0701311294,9557.425689100703,88122.94835367492,65831.113039977,973310.6658371915,33833450293.736176,23871833936.06468,81921187.15192194
1.73828125,402.53604943923096,379.1714351110094,632.2041657129778,946.0654612039367,0.0,0.0,-16715.776020745434,-1752498.738510051,23508.58153385371,86692.59329048809,66818.60379265147,974053.0651637681,33814544675.067024,23863028110.055527,77771821.38082896
1.7421875,0.0,0.0,1650.0,1650.0,0.0,0.0,-14622.03016849061,-1745533.4225758978,31975.221738433425,85391.87649982149,67513.30550357768,974655.8975284903,33795234459.689323,23855921675.18358,70639531.78862128
1.74609375,676.5415426871136,676.5415426871136,1275.6626230258641,1020.6157015335317,0.0,0.0,-7526.691946607463,-1736639.5979987774,33168.22207559123,84500.6794971133,67744.16957138867,974853.0185268951,33783670945.52399,23853216252.122944,65262183.28455793
1.75,1650.0,1650.0,120.09613183794919,5.664911879148575,0.0,0.0,2690.5969240578956,-1728759.9716454581,27606.44886276092,84220.52580299211,67460.47951253077,974532.6124995594,33784297581.44504,23855449698.634342,65536949.72151425
1.75390625,677.750057221332,678.1528953994048,646.3035019455252,779.2904554818036,0.0,0.0,13277.012989264475,-1724527.1487910827,17606.20708751079,84617.50168559767,66765.66282712482,973777.3995013023,33796508497.412426,23860940380.52311,72452724.66886865
1.7578125,603.1998168917373,603.1998168917373,1495.6626230258637,1182.1789883268484,0.0,0.0,21526.970187131854,-1725402.8757063574,6258.998326275356,85600.74794156647,65902.42661658648,972830.7937299337,33815603232.63977,23866859336.617077,83445206.35983716
1.76171875,1617.7477683680477,1618.1506065461203,379.1714351110094,85.42687113756006,0.0,0.0,25647.862984074472,-1731170.1256867833,-3676.7083911348964,86944.66433244923,65189.22363995583,972003.4726159357,33835210480.60206,23870779033.469868,93616873.29120375
1.765625,1650.0,1650.0,0.0,0.0,0.0,0.0,25251.21694696837,-1739957.5646734366,-10568.257528557986,88349.45651996005,64925.37730871083,971557.0842370732,33849834531.16654,23871833936.064674,98305424.58232957
1.76953125,844.5250629434654,844.5250629434654,676.5415426871136,631.3984893568322,0.0,0.0,21291.562075237453,-1748812.518404142,-14154.475300335733,89522.33797732828,65294.44756056674,971609.5896154838,33856426922.569416,23870901289.3525,95723586.5029143
1.7734375,0.0,0.0,1650.0,1650.0,0.0,0.0,15490.255727236447,-1754659.208982014,-15249.730616034729,90254.81776712464,66297.93890287277,972097.3465847113,33854630265.372093,23869794824.36116,88253104.00904974
1.77734375,1650.0,1650.0,0.0,0.0,0.0,0.0,9486.88512515423,-1755342.0168915095,-15118.74415883189,90472.58815291061,67742.90451869319,972806.4710701844,33846077990.55455,23870017699.78432,81577993.25885022
1.78125,0.0,0.0,1650.0,1650.0,0.0,0.0,4075.0869009256226,-1750407.7006854757,-14832.954851925724,90243.41015415361,69289.97003256386,973459.2197604383,33833450293.73619,23871833936.064682,81921187.15192191
1.78515625,441.23369192034784,441.6365300984206,1650.0,1392.5108720531016,0.0,0.0,-1146.2633449748641,-1741347.6865601353,-14880.305699950131,89742.17836978984,70548.46016762394,973820.5228616168,33819793070.469482,23874185442.539368,92668509.58201283
1.7890625,1538.3634699015793,1538.3634699015793,678.5557335774777,244.19546807049664,0.0,0.0,-7536.89927629148,-1731186.7285895692,-15152.497406737764,89186.33829298634,71189.46138556172,973783.1556448381,33808148096.50668,23875456971.476574,112086402.33999816
1.79296875,992.4170290684367,992.8198672465095,588.6976424811169,662.4422064545663,0.0,0.0,-16662.687933658643,-1723517.9117498305,-15248.203134633355,88764.18784704657,71041.32199443717,973399.6099947508,33801201199.737602,23874587494.424007,133408808.80842048
1.796875,0.0,0.0,1612.1080338750285,1650.0,0.0,0.0,-29318.76158255539,-1721276.6642415633,-14889.716880420363,88580.06868369022,70137.56062388718,972850.4262818157,33800681818.875435,23871833936.064674,147458136.87343615
1.80078125,231.30464637216753,231.30464637216753,1650.0,1588.3405813687343,0.0,0.0,-44738.28664160084,-1725651.4721026972,-14212.807628154638,88633.58540284324,68702.62867408506,972363.8619437221,33806598402.78145,23868713953.31869,146707975.68107206
1.8046875,1379.2172121766991,1379.6200503547723,843.3165484092469,522.2041657129778,0.0,0.0,-60356.69301298942,-1735505.7360966622,-13766.8032816024,88837.32170139391,67081.19301906184,972120.4366493815,33816772753.048374,23867149621.143448,128920819.86851755
1.80859375,1650.0,1650.0,0.0,0.0,0.0,0.0,-72309.2618324799,-1747534.7859242482,-14215.269887733606,89063.68403859003,65634.69317938472,972180.9348960145,33827207171.760113,23868310181.116577,98608603.45653117
1.8125,1650.0,1650.0,0.0,0.0,0.0,0.0,-76562.74786648825,-1757149.200147793,-15885.581988036309,89201.52813349415,64638.79656065394,972466.1465719027,33833450293.736168,23871833936.064682,65536949.72151425
1.81640625,961.3733119707027,961.3733119707027,441.6365300984206,682.5841153582055,0.0,0.0,-70322.30075982254,-1759835.3123635503,-18405.307966179153,89200.68177446486,64213.84926038524,972795.3067499131,33832504637.477753,23875896466.133694,40865690.53848915
1.8203125,0.0,0.0,1538.3634699015793,1650.0,0.0,0.0,-53214.8180143704,-1752576.8636878438,-20641.85337174709,89088.14630632484,64308.29751434473,972966.4480839896,33824339557.016167,23878112135.49718,32625201.902029064
1.82421875,35.474937056534706,35.474937056534706,1650.0,1650.0,0.0,0.0,-27789.668857069948,-1734886.9481861051,-21035.092973407332,88951.33531442436,64736.76088285167,972845.1431241581,33812097330.066063,23876785480.05699,42535056.11689014
1.828125,1101.2085145342185,1101.6113527122911,992.4170290684367,765.1659418631266,0.0,0.0,907.6274852181722,-1709112.3624818209,-18233.36681957612,88896.68613778129,65256.40021723407,972424.9670256675,33800681818.875435,23871833936.064674,65536949.72151426
1.83203125,1650.0,1650.0,0.0,0.0,0.0,0.0,26615.206301362712,-1679899.0260203877,-11788.775430972179,89001.3694429675,65653.5758170498,971834.6093153098,33794306706.67406,23864887280.119884,92156091.73789251
1.8359375,940.8285648889906,941.2314030670634,231.30464637216753,522.2041657129778,0.0,0.0,43606.532211635356,-1652973.6870441672,-2608.153612715563,89278.0647800324,65811.23890691633,971288.224513124,33794244771.74886,23858520520.611958,112536601.57708664
1.83984375,0.0,0.0,1379.6200503547723,1579.8809796292057,0.0,0.0,48347.99130670104,-1633615.153828937,7076.146728627691,89667.10227833569,65736.09838230448,970998.6874729531,33798033573.499496,23855038600.183163,120314709.04231344
1.84375,0.0,0.0,1650.0,1650.0,0.0,0.0,40507.51480125888,-1625284.5959894634,14276.528447635901,90059.01354415169,65539.87079407628,971088.7118867487,33800681818.875427,23855449698.63434,114689662.01262084
1.84765625,858.6243991760127,859.0272373540855,961.3733119707027,922.7008468757153,0.0,0.0,22967.60760156036,-1628826.6172416764,16206.122825302538,90338.18431429754,65385.19359742302,971536.1700078922,33797337614.401623,23859130994.15494,99981898.16887197
1.8515625,43.93453879606317,43.93453879606317,1101.6113527122911,1500.4966811627376,0.0,0.0,831.229926255787,-1642460.7226418264,11294.130277022841,90429.76545619743,65418.311181424215,972176.7692857761,33786025499.61378,23864297388.442223,83144959.6294441
1.85546875,1101.6113527122911,1101.6113527122911,35.474937056534706,361.8493934538796,0.0,0.0,-20247.020125283932,-1662522.1704649988,-119.32171927773979,90330.66562787443,65713.6383329019,972764.5964021173,33768941876.80637,23868959421.81213,70551727.98605122
1.859375,701.1146715495537,701.1146715495537,941.2314030670634,981.5152208743419,0.0,0.0,-35841.764603087955,-1684670.8435063688,-15696.454705018574,90111.8439000791,66249.19691374929,973067.8011556879,33751529106.584274,23871833936.064674,65536949.72151425
1.86328125,1650.0,1650.0,0.0,0.0,0.0,0.0,-44053.242192501915,-1705147.874595414,-31701.568419102856,89890.6881740091,66919.41919353536,972962.0496740829,33739754066.451023,23872755515.439083,67642168.74660854
1.8671875,0.0,0.0,1650.0,1650.0,0.0,0.0,-45897.25731597956,-1721667.6730136145,-44114.94271639006,89784.37070417566,67577.78060131289,972484.2448242796,33737033262.7385,23872455854.54375,73607487.70615962
1.87109375,1650.0,1650.0,0.0,0.0,0.0,0.0,-44686.48374364997,-1733681.6796831351,-49891.40858712066,89862.84006737192,68091.32867883878,971823.7005088996,33742489451.05946,23871934310.086823,79359470.28751744
1.875,1265.1888303959718,1265.5916685740444,0.0,170.45090409704733,0.0,0.0,-44651.00366613297,-1741984.7053148944,-47927.16757068573,90120.3746410385,68385.98970218394,971251.9924937497,33751529106.584267,23871833936.064693,81921187.1519219
1.87890625,125.73586633096818,125.73586633096818,858.6243991760127,1300.235751888304,0.0,0.0,-49301.68752340193,-1747870.9625034626,-39390.824816591776,90477.2190110612,68466.32281030911,971016.8962838268,33758459347.797607,23872172273.615955,80406753.27760233
1.8828125,0.0,0.0,1650.0,1650.0,0.0,0.0,-60112.56205944353,-1752201.4271357874,-27295.310790205007,90810.68233384339,68403.95772647604,971240.7571916195,33759717663.654533,23872518933.82989,75857573.77151175
1.88671875,646.3035019455252,646.3035019455252,1101.6113527122911,958.956282902266,0.0,0.0,-75966.47974663228,-1754763.536289174,-15456.442635985255,91003.08068439427,68301.08514010913,971863.3261554098,33755916065.823307,23872432340.60415,70278586.56656173
1.890625,1650.0,1650.0,43.93453879606317,0.0,0.0,0.0,-93525.09132525214,-1754183.6244184887,-7202.314305351348,90986.9440550755,68244.48414805609,972653.3023329942,33751529106.584267,23871833936.064682,65536949.72151426
1.89453125,1495.6626230258637,1495.6626230258637,0.0,33.46074616617079,0.0,0.0,-108355.37305103376,-1748436.929901614,-4284.837981394716,90768.89856121122,68268.41934745721,973287.2410220313,33752349613.86006,23871076550.20078,62689993.996121034
1.8984375,379.1714351110094,379.1714351110094,701.1146715495537,1085.0698100251775,0.0,0.0,-116389.82915095297,-1735767.9628661568,-6368.720957012554,90422.29974620337,68340.54866620112,973468.6427405694,33762083336.931465,23870687372.750465,61937895.39236661
1.90234375,0.0,0.0,1650.0,1650.0,0.0,0.0,-115204.09635121205,-1715669.4659221452,-11262.753733763693,90051.61802856789,68375.63363646106,973043.7418492966,33779956639.301598,23870983708.01279,63001993.324633576
1.90625,676.1387045090408,675.7358663309682,1265.5916685740444,1023.4355687800411,0.0,0.0,-104689.90162188534,-1689530.8388714234,-15791.800646031661,89743.53106207584,68271.05939940501,972070.1418214468,33800681818.875446,23871833936.0647,65536949.72151425
1.91015625,1650.0,1650.0,125.73586633096818,0.0,0.0,0.0,-86939.57071990104,-1660671.2945498454,-16983.326054600846,89525.70187697513,67950.05345689657,970810.5103221997,33816849272.684086,23872727570.346237,69269759.10219257
1.9140625,1650.0,1650.0,0.0,0.0,0.0,0.0,-65446.36349443876,-1633683.6427282149,-13140.513256494965,89351.65711310135,67395.97643439693,969650.4257465345,33822498428.37758,23873105696.09755,73824351.30840057
1.91796875,677.750057221332,662.4422064545663,646.3035019455252,864.2641336690318,0.0,0.0,-43955.158133935605,-1613258.4572177348,-4428.929026595363,89119.81030769675,66664.86926222063,968967.4184979615,33815987731.536335,23872728567.31773,78445859.77317458
1.921875,0.0,0.0,1650.0,1650.0,0.0,0.0,-25390.0390942979,-1602850.488464335,7209.406544078909,88720.50571376507,65871.9101407961,968996.9867710066,33800681818.875435,23871833936.06469,81921187.1519219
1.92578125,1618.956282902266,1650.0,379.1714351110094,73.34172579537653,0.0,0.0,-11214.873915959819,-1603621.9964597959,18754.287270874414,88092.68135455405,65157.2168223834,969743.8417315345,33783170289.91763,23870980425.705147,82862557.2843962
1.9296875,1650.0,1650.0,0.0,0.0,0.0,0.0,-1388.106216283873,-1614024.2230083407,27143.74769951689,87266.48818672287,64643.82003408803,970971.6633211671,33770054592.23951,23870680698.668686,80273416.05296057
1.93359375,836.4682993820096,799.8352025635157,674.9301899748226,708.7685969329366,0.0,0.0,5163.519493305288,-1630181.1420393472,30269.544580641257,86372.41286921524,64402.9659048323,972277.3749480805,33765054558.90648,23871070094.964657,74112471.22514904
1.9375,0.0,0.0,1650.0,1650.0,0.0,0.0,9812.509544409773,-1646983.3196877472,27589.737801787025,85609.84576045016,64438.50968539028,973226.024736771,33767913344.014675,23871833936.064682,65536949.72151425
1.94140625,451.3046463721675,518.5786221103227,1650.0,1314.3350881208514,0.0,0.0,13565.853153819797,-1659568.5360556738,20174.665865803472,85183.97141757638,64694.54379256988,973500.4726785223,33775500026.811058,23872443494.055157,56657345.35131561
1.9453125,1544.8340581368732,1582.2980086976427,657.5829709315633,178.50766765850312,0.0,0.0,16725.50254916898,-1664735.9297283217,10217.099639243163,85233.09308463873,65081.59434989151,973014.0905869572,33784255400.13887,23872539147.07498,49880121.12143576
1.94921875,1650.0,1650.0,0.0,0.0,0.0,0.0,18965.963732696626,-1661854.7846448196,225.70589634084487,85773.63817298006,65510.09289984705,971946.8122707466,33792416448.268696,23872190361.813908,47112436.23872073
1.953125,602.3941405355916,678.9585717555505,1495.6626230258637,1158.008697642481,0.0,0.0,19732.801969188244,-1652983.7324571125,-7784.852118515031,86684.75919601016,65917.81277485302,970690.9304471517,33800681818.875435,23871833936.064682,49152712.29110656
1.95703125,974.6669718471045,922.7008468757153,601.9913023575189,648.720531013962,0.0,0.0,18734.485795212826,-1642161.9902404484,-12822.466167160948,87740.34179878942,66281.15540163532,969723.9250568332,33810991290.47416,23871906226.396217,55483660.06138215
1.9609375,0.0,0.0,1620.1647974364844,1650.0,0.0,0.0,16276.511422495292,-1634093.301488851,-15012.026515884892,88678.57449300523,66607.18447795224,969450.570421154,33824281402.330997,23872407021.764492,64496913.36137879
1.96484375,261.11467154955363,358.2238498512245,1650.0,1496.4682993820095,0.0,0.0,13274.813384440122,-1632633.7498378952,-15280.759254936562,89284.79712268233,66911.3221591757,970066.9997664653,33838741686.098934,23872713386.858864,74016524.45293348
1.96875,1406.610208285649,1498.0796520943006,821.588464179446,380.78278782330057,0.0,0.0,10941.589155423511,-1639556.8568164436,-14811.689630624167,89457.82790920937,67191.50718766046,971491.8405072134,33849834531.166546,23871833936.06469,81921187.15192191
1.97265625,967.0130464637216,977.4868390936141,441.6365300984206,676.5415426871136,0.0,0.0,10290.108328967439,-1653984.0306322235,-14512.332563018628,89235.72709782074,67411.10527670426,973386.7853681237,33852298587.482788,23869020868.306286,86691101.57840605
1.9765625,0.0,0.0,1540.4028381780727,1650.0,0.0,0.0,11688.524719573079,-1672662.024563727,-14712.1285505621,88771.99054650927,67499.39938895151,975259.0341009158,33843131791.12944,23864401408.6129,87771344.953889
1.98046875,76.56443121995879,128.15289539940488,1650.0,1650.0,0.0,0.0,14670.797225981234,-1691005.2634485834,-15185.934130105954,88271.8150600324,67371.40720068345,976611.2340061874,33823862039.352577,23859218590.879932,85693859.77151576
